"Storage 011951 PM - RawData - C:\Users\Kyung\Feb102011\UV\File 110210 011951 PM.spc"
"Wavelength nm.","T%"
200.00,-0.00153
200.50,-0.00610
201.00,0.00000
201.50,0.00458
202.00,-0.00153
202.50,0.00153
203.00,-0.00153
203.50,-0.00153
204.00,-0.00153
204.50,-0.00153
205.00,0.00000
205.50,0.00000
206.00,-0.00153
206.50,0.00000
207.00,0.00000
207.50,-0.00153
208.00,-0.00153
208.50,0.00000
209.00,-0.00153
209.50,-0.00153
210.00,-0.00153
210.50,-0.00153
211.00,-0.00153
211.50,0.00153
212.00,0.00000
212.50,0.00000
213.00,0.00000
213.50,0.00000
214.00,-0.00153
214.50,0.00000
215.00,-0.00153
215.50,0.00000
216.00,0.00000
216.50,-0.00153
217.00,0.00000
217.50,0.00000
218.00,0.00153
218.50,0.00000
219.00,0.00000
219.50,0.00000
220.00,0.00000
220.50,0.00000
221.00,0.00000
221.50,0.00000
222.00,0.00153
222.50,0.00153
223.00,0.00000
223.50,0.00000
224.00,0.00153
224.50,0.00153
225.00,0.00153
225.50,0.00458
226.00,0.00458
226.50,0.00763
227.00,0.00763
227.50,0.01068
228.00,0.01373
228.50,0.01678
229.00,0.01678
229.50,0.01984
230.00,0.01984
230.50,0.02594
231.00,0.03204
231.50,0.03510
232.00,0.04120
232.50,0.04883
233.00,0.04883
233.50,0.05798
234.00,0.06256
234.50,0.07324
235.00,0.08240
235.50,0.09155
236.00,0.10529
236.50,0.11902
237.00,0.12512
237.50,0.14496
238.00,0.16022
238.50,0.17700
239.00,0.19989
239.50,0.21820
240.00,0.23956
240.50,0.26855
241.00,0.29755
241.50,0.32196
242.00,0.35400
242.50,0.38300
243.00,0.42725
243.50,0.45624
244.00,0.50201
244.50,0.54474
245.00,0.58746
245.50,0.66376
246.00,0.69733
246.50,0.75226
247.00,0.81329
247.50,0.87280
248.00,0.93994
248.50,1.01318
249.00,1.07269
249.50,1.15204
250.00,1.22528
250.50,1.30920
251.00,1.39008
251.50,1.49536
252.00,1.56860
252.50,1.66473
253.00,1.76697
253.50,1.86462
254.00,1.97449
254.50,2.08130
255.00,2.19574
255.50,2.32697
256.00,2.44751
256.50,2.58484
257.00,2.70386
257.50,2.85492
258.00,2.98462
258.50,3.14484
259.00,3.29895
259.50,3.44391
260.00,3.62091
260.50,3.74756
261.00,3.95355
261.50,4.11224
262.00,4.26636
262.50,4.46472
263.00,4.65698
263.50,4.88739
264.00,5.07965
264.50,5.29175
265.00,5.47028
265.50,5.70831
266.00,5.92651
266.50,6.14471
267.00,6.36139
267.50,6.59485
268.00,6.79169
268.50,7.02209
269.00,7.30133
269.50,7.53326
270.00,7.76215
270.50,8.04901
271.00,8.26263
271.50,8.54187
272.00,8.77380
272.50,9.09882
273.00,9.36584
273.50,9.67255
274.00,9.94415
274.50,10.20355
275.00,10.49957
275.50,10.78949
276.00,11.09314
276.50,11.43494
277.00,11.72333
277.50,12.05902
278.00,12.35657
278.50,12.67090
279.00,13.02338
279.50,13.32703
280.00,13.67798
280.50,13.98621
281.00,14.29596
281.50,14.63470
282.00,14.96887
282.50,15.25116
283.00,15.68146
283.50,15.92560
284.00,16.34521
284.50,16.67786
285.00,17.05322
285.50,17.33704
286.00,17.70630
286.50,17.98553
287.00,18.37921
287.50,18.73779
288.00,19.12842
288.50,19.40308
289.00,19.73267
289.50,20.01648
290.00,20.42084
290.50,20.75958
291.00,21.03271
291.50,21.53473
292.00,21.83228
292.50,22.25189
293.00,22.56927
293.50,22.94464
294.00,23.28339
294.50,23.64197
295.00,23.99445
295.50,24.45374
296.00,24.88708
296.50,25.28076
297.00,25.75073
297.50,26.11694
298.00,26.51062
298.50,27.01263
299.00,27.47345
299.50,27.87476
300.00,28.28064
300.50,28.69873
301.00,29.18854
301.50,29.66919
302.00,30.11780
302.50,30.57404
303.00,31.05774
303.50,31.53534
304.00,31.93359
304.50,32.47375
305.00,33.08258
305.50,33.52203
306.00,33.93707
306.50,34.43604
307.00,34.80988
307.50,35.49957
308.00,35.98328
308.50,36.56158
309.00,37.14600
309.50,37.93030
310.00,38.28430
310.50,38.99078
311.00,39.60724
311.50,40.23895
312.00,40.78522
312.50,41.49170
313.00,42.10358
313.50,42.69714
314.00,43.42804
314.50,43.96515
315.00,44.63196
315.50,45.25146
316.00,45.89691
316.50,46.66443
317.00,47.29462
317.50,48.03009
318.00,48.55347
318.50,49.42322
319.00,50.10834
319.50,50.78888
320.00,51.61285
320.50,52.12250
321.00,53.04565
321.50,53.65601
322.00,54.25262
322.50,55.07660
323.00,55.85785
323.50,56.50330
324.00,57.23267
324.50,58.04596
325.00,58.55713
325.50,59.32312
326.00,59.81598
326.50,60.51178
327.00,61.34796
327.50,61.90186
328.00,62.64648
328.50,63.06000
329.00,63.94348
329.50,64.63470
330.00,65.13977
330.50,65.77759
331.00,66.48712
331.50,67.05475
332.00,67.82684
332.50,68.21136
333.00,68.80951
333.50,69.43665
334.00,69.97986
334.50,70.48187
335.00,70.85571
335.50,71.35010
336.00,71.54999
336.50,72.36938
337.00,72.81342
337.50,73.21167
338.00,73.57635
338.50,74.03412
339.00,74.24774
339.50,74.80774
340.00,75.48065
340.50,75.72174
341.00,76.16577
341.50,76.61743
342.00,77.00958
342.50,77.23541
343.00,77.42462
343.50,77.89154
344.00,77.97241
344.50,78.33405
345.00,78.39355
345.50,78.58734
346.00,79.10156
346.50,79.35944
347.00,79.48914
347.50,79.64935
348.00,79.97742
348.50,80.26886
349.00,80.29480
349.50,80.49774
350.00,80.72968
350.50,80.82581
351.00,80.95703
351.50,80.96771
352.00,80.97534
352.50,81.10657
353.00,81.09741
353.50,81.60400
354.00,81.35223
354.50,81.55823
355.00,81.42853
355.50,81.67267
356.00,81.62231
356.50,81.55212
357.00,81.54755
357.50,81.64520
358.00,81.49109
358.50,81.50024
359.00,81.67114
359.50,81.57654
360.00,81.73981
360.50,81.47888
361.00,81.39038
361.50,81.19354
362.00,81.16760
362.50,80.99518
363.00,80.90515
363.50,81.02112
364.00,80.80902
364.50,80.94482
365.00,80.76477
365.50,80.78461
366.00,80.61218
366.50,80.35736
367.00,80.25970
367.50,80.19104
368.00,79.96674
368.50,80.28717
369.00,79.79736
369.50,79.84772
370.00,79.72565
370.50,79.52728
371.00,79.41132
371.50,79.34723
372.00,79.10767
372.50,79.02985
373.00,78.89099
373.50,78.97339
374.00,78.67889
374.50,78.59192
375.00,78.45764
375.50,78.38745
376.00,78.28827
376.50,78.17230
377.00,78.00598
377.50,77.94952
378.00,77.89764
378.50,77.77710
379.00,77.65808
379.50,77.57263
380.00,77.33917
380.50,77.23083
381.00,77.13623
381.50,77.11029
382.00,76.88293
382.50,76.99890
383.00,76.83411
383.50,76.75781
384.00,76.72729
384.50,76.61896
385.00,76.45416
385.50,76.42212
386.00,76.22528
386.50,76.13983
387.00,76.12000
387.50,76.08643
388.00,75.98267
388.50,75.92316
389.00,75.80566
389.50,75.83923
390.00,75.78125
390.50,75.82550
391.00,75.74463
391.50,75.69275
392.00,75.54474
392.50,75.53558
393.00,75.60730
393.50,75.45929
394.00,75.48828
394.50,75.36011
395.00,75.38605
395.50,75.29449
396.00,75.39368
396.50,75.37842
397.00,75.24567
397.50,75.23041
398.00,75.20142
398.50,75.30975
399.00,75.18311
399.50,75.13885
400.00,75.12207
400.50,75.07935
401.00,75.16174
401.50,75.09003
402.00,75.26093
402.50,75.33112
403.00,75.21362
403.50,75.30212
404.00,75.34790
404.50,75.32349
405.00,75.41504
405.50,75.48828
406.00,75.59357
406.50,75.57526
407.00,75.64392
407.50,75.63324
408.00,75.57526
408.50,75.70343
409.00,75.65765
409.50,75.74005
410.00,75.73700
410.50,75.79498
411.00,75.95367
411.50,75.90790
412.00,75.93079
412.50,76.07574
413.00,76.16425
413.50,76.22833
414.00,76.36261
414.50,76.40686
415.00,76.43890
415.50,76.57928
416.00,76.40228
416.50,76.56555
417.00,76.65253
417.50,76.73187
418.00,76.91803
418.50,77.08130
419.00,77.11945
419.50,77.27966
420.00,77.30713
420.50,77.22778
421.00,77.31171
421.50,77.51312
422.00,77.53754
422.50,77.71606
423.00,77.81677
423.50,77.88696
424.00,78.02277
424.50,78.11890
425.00,78.30963
425.50,78.39813
426.00,78.49884
426.50,78.58429
427.00,78.78876
427.50,78.81775
428.00,79.02222
428.50,79.08783
429.00,79.25568
429.50,79.37927
430.00,79.43573
430.50,79.56390
431.00,79.70123
431.50,79.80042
432.00,79.86603
432.50,80.21545
433.00,80.33905
433.50,80.50232
434.00,80.65948
434.50,80.67322
435.00,80.76172
435.50,80.84106
436.00,81.11267
436.50,81.23474
437.00,81.43158
437.50,81.41174
438.00,81.67267
438.50,81.76575
439.00,81.88019
439.50,81.98700
440.00,82.06329
440.50,82.34863
441.00,82.45544
441.50,82.61414
442.00,82.67212
442.50,82.85370
443.00,82.93457
443.50,83.23517
444.00,83.23212
444.50,83.39081
445.00,83.54492
445.50,83.59680
446.00,83.78143
446.50,83.95538
447.00,84.11407
447.50,84.14764
448.00,84.34296
448.50,84.44061
449.00,84.51233
449.50,84.71069
450.00,84.81140
450.50,84.90906
451.00,84.97620
451.50,85.14404
452.00,85.26154
452.50,85.57739
453.00,85.58960
453.50,85.79559
454.00,85.77576
454.50,85.93750
455.00,86.07178
455.50,86.20605
456.00,86.38306
456.50,86.48529
457.00,86.65314
457.50,86.73248
458.00,86.86371
458.50,86.94611
459.00,87.20703
459.50,87.25128
460.00,87.39624
460.50,87.42371
461.00,87.51678
461.50,87.65869
462.00,87.78381
462.50,87.92572
463.00,88.08594
463.50,88.24768
464.00,88.41400
464.50,88.40485
465.00,88.48114
465.50,88.49945
466.00,88.69324
466.50,88.74969
467.00,88.96790
467.50,89.13574
468.00,89.16779
468.50,89.28528
469.00,89.33716
469.50,89.51111
470.00,89.53400
470.50,89.68353
471.00,89.88953
471.50,89.87427
472.00,90.04822
472.50,90.04059
473.00,90.12299
473.50,90.16571
474.00,90.28320
474.50,90.29694
475.00,90.44037
475.50,90.58228
476.00,90.51056
476.50,90.58228
477.00,90.61890
477.50,90.78217
478.00,90.82794
478.50,91.01715
479.00,91.02936
479.50,91.05988
480.00,91.05988
480.50,91.12244
481.00,91.24603
481.50,91.27045
482.00,91.34369
482.50,91.33301
483.00,91.41693
483.50,91.54968
484.00,91.55884
484.50,91.60614
485.00,91.62598
485.50,91.57410
486.00,91.68243
486.50,91.70685
487.00,91.80145
487.50,91.80145
488.00,91.74652
488.50,91.77704
489.00,91.79840
489.50,91.84113
490.00,91.91437
490.50,91.83197
491.00,91.90674
491.50,91.87164
492.00,91.91742
492.50,91.98303
493.00,92.01355
493.50,92.04102
494.00,92.02423
494.50,91.98151
495.00,91.98151
495.50,92.00287
496.00,92.07764
496.50,91.98303
497.00,91.93420
497.50,91.84418
498.00,91.87775
498.50,91.94336
499.00,91.94336
499.50,92.02118
500.00,91.89453
500.50,91.88385
501.00,91.92352
501.50,91.87164
502.00,91.85638
502.50,91.79993
503.00,91.81976
503.50,91.77094
504.00,91.77856
504.50,91.76025
505.00,91.75415
505.50,91.66107
506.00,91.60461
506.50,91.70074
507.00,91.67023
507.50,91.59088
508.00,91.56799
508.50,91.47949
509.00,91.35284
509.50,91.40778
510.00,91.38794
510.50,91.42303
511.00,91.36047
511.50,91.29181
512.00,91.23383
512.50,91.22162
513.00,91.16211
513.50,90.99426
514.00,91.03546
514.50,91.00647
515.00,91.02020
515.50,90.99884
516.00,90.93170
516.50,90.73944
517.00,90.72418
517.50,90.69519
518.00,90.68146
518.50,90.60974
519.00,90.52734
519.50,90.57312
520.00,90.42206
520.50,90.36102
521.00,90.41290
521.50,90.35034
522.00,90.29541
522.50,90.27557
523.00,90.16266
523.50,90.01312
524.00,90.03601
524.50,89.95667
525.00,90.04822
525.50,89.78729
526.00,89.72015
526.50,89.66370
527.00,89.56451
527.50,89.51721
528.00,89.46075
528.50,89.32648
529.00,89.34937
529.50,89.21356
530.00,89.20593
530.50,89.26086
531.00,89.16016
531.50,89.04877
532.00,88.98773
532.50,88.78937
533.00,88.68256
533.50,88.64899
534.00,88.55286
534.50,88.56049
535.00,88.39417
535.50,88.39264
536.00,88.36670
536.50,88.15002
537.00,88.11188
537.50,88.08441
538.00,87.99744
538.50,88.02185
539.00,87.86469
539.50,87.73651
540.00,87.65259
540.50,87.59003
541.00,87.52136
541.50,87.42828
542.00,87.28333
542.50,87.25891
543.00,87.13684
543.50,87.04071
544.00,87.05750
544.50,87.02240
545.00,86.82709
545.50,86.77826
546.00,86.68060
546.50,86.53564
547.00,86.55853
547.50,86.42426
548.00,86.41357
548.50,86.30676
549.00,86.23199
549.50,86.11755
550.00,86.12061
550.50,86.05042
551.00,85.92682
551.50,85.82916
552.00,85.79102
552.50,85.72693
553.00,85.59875
553.50,85.47211
554.00,85.39734
554.50,85.43243
555.00,85.34241
555.50,85.20966
556.00,85.17151
556.50,85.13641
557.00,84.98535
557.50,84.99603
558.00,84.85107
558.50,84.84497
559.00,84.64508
559.50,84.62067
560.00,84.56879
560.50,84.50165
561.00,84.48486
561.50,84.33838
562.00,84.29871
562.50,84.21173
563.00,84.19037
563.50,83.99811
564.00,84.01031
564.50,83.94470
565.00,83.85773
565.50,83.76465
566.00,83.77991
566.50,83.69598
567.00,83.67157
567.50,83.56171
568.00,83.58307
568.50,83.45337
569.00,83.37860
569.50,83.21838
570.00,83.21381
570.50,83.11157
571.00,83.05664
571.50,83.00629
572.00,82.95898
572.50,82.88116
573.00,82.74231
573.50,82.66449
574.00,82.56531
574.50,82.50275
575.00,82.43561
575.50,82.38678
576.00,82.28912
576.50,82.26471
577.00,82.20978
577.50,82.17163
578.00,82.16553
578.50,82.09076
579.00,81.97021
579.50,81.85272
580.00,81.84204
580.50,81.74133
581.00,81.64063
581.50,81.73218
582.00,81.57959
582.50,81.62689
583.00,81.51093
583.50,81.43311
584.00,81.37970
584.50,81.33545
585.00,81.26068
585.50,81.28052
586.00,81.19812
586.50,81.16913
587.00,81.08215
587.50,81.01959
588.00,81.08826
588.50,80.96008
589.00,80.84869
589.50,80.89294
590.00,80.77087
590.50,80.65796
591.00,80.68390
591.50,80.62439
592.00,80.58624
592.50,80.58167
593.00,80.48859
593.50,80.47485
594.00,80.49316
594.50,80.43365
595.00,80.34363
595.50,80.31464
596.00,80.23224
596.50,80.24445
597.00,80.13458
597.50,80.10864
598.00,80.04913
598.50,79.96979
599.00,79.90112
599.50,79.93469
600.00,79.82483
600.50,79.87213
601.00,79.76074
601.50,79.73938
602.00,79.69818
602.50,79.61426
603.00,79.58984
603.50,79.67682
604.00,79.58984
604.50,79.52576
605.00,79.50592
605.50,79.46930
606.00,79.41284
606.50,79.49219
607.00,79.34723
607.50,79.34723
608.00,79.26331
608.50,79.24194
609.00,79.20074
609.50,79.12750
610.00,79.10767
610.50,79.08783
611.00,79.07104
611.50,79.01917
612.00,78.98407
612.50,78.98102
613.00,78.92761
613.50,78.91541
614.00,78.88794
614.50,78.83911
615.00,78.81775
615.50,78.80859
616.00,78.81317
616.50,78.71399
617.00,78.73230
617.50,78.67584
618.00,78.65753
618.50,78.65448
619.00,78.67432
619.50,78.62854
620.00,78.63617
620.50,78.55377
621.00,78.63464
621.50,78.53699
622.00,78.53088
622.50,78.51410
623.00,78.48511
623.50,78.46222
624.00,78.39966
624.50,78.36456
625.00,78.45917
625.50,78.39355
626.00,78.37982
626.50,78.28064
627.00,78.33405
627.50,78.30505
628.00,78.30048
628.50,78.34320
629.00,78.30658
629.50,78.27454
630.00,78.25928
630.50,78.30353
631.00,78.24860
631.50,78.17383
632.00,78.18909
632.50,78.14636
633.00,78.16620
633.50,78.12042
634.00,78.14331
634.50,78.08990
635.00,78.10822
635.50,78.04718
636.00,78.08533
636.50,78.06549
637.00,78.00598
637.50,78.06549
638.00,78.01514
638.50,77.98004
639.00,78.00903
639.50,77.98157
640.00,78.08075
640.50,77.98767
641.00,78.07312
641.50,78.07159
642.00,77.95258
642.50,77.91138
643.00,77.90070
643.50,77.96021
644.00,77.97852
644.50,77.96326
645.00,77.95715
645.50,77.99988
646.00,77.92206
646.50,77.93732
647.00,77.95105
647.50,77.95410
648.00,77.86407
648.50,77.93427
649.00,77.87323
649.50,77.92053
650.00,77.88696
650.50,77.97089
651.00,77.93884
651.50,77.90833
652.00,77.98157
652.50,77.97699
653.00,77.97852
653.50,77.99072
654.00,78.06549
654.50,77.98157
655.00,77.96478
655.50,78.02124
656.00,78.02429
656.50,78.05176
657.00,78.02734
657.50,78.02734
658.00,78.06396
658.50,77.97241
659.00,78.04413
659.50,77.98767
660.00,77.99683
660.50,77.99835
661.00,78.01666
661.50,78.03955
662.00,78.05786
662.50,78.07465
663.00,78.04413
663.50,78.07312
664.00,78.18756
664.50,78.08228
665.00,78.05939
665.50,78.10059
666.00,78.16620
666.50,78.11279
667.00,78.21350
667.50,78.15399
668.00,78.06549
668.50,78.05786
669.00,78.07159
669.50,78.07770
670.00,78.14941
670.50,78.21198
671.00,78.12653
671.50,78.24097
672.00,78.30963
672.50,78.26996
673.00,78.29895
673.50,78.25012
674.00,78.29285
674.50,78.33862
675.00,78.29285
675.50,78.28979
676.00,78.37524
676.50,78.37524
677.00,78.40881
677.50,78.41187
678.00,78.42865
678.50,78.45917
679.00,78.50494
679.50,78.58887
680.00,78.57971
680.50,78.53241
681.00,78.68347
681.50,78.57819
682.00,78.65448
682.50,78.73077
683.00,78.68958
683.50,78.67432
684.00,78.72772
684.50,78.77197
685.00,78.71704
685.50,78.74756
686.00,78.77502
686.50,78.90625
687.00,78.90167
687.50,78.81775
688.00,78.86505
688.50,78.79181
689.00,78.84979
689.50,78.81775
690.00,78.80554
690.50,78.84369
691.00,78.84369
691.50,78.89862
692.00,78.99475
692.50,78.97949
693.00,79.04968
693.50,79.10156
694.00,79.03137
694.50,79.01459
695.00,78.95050
695.50,79.17786
696.00,79.15039
696.50,79.19617
697.00,79.16260
697.50,79.26788
698.00,79.24805
698.50,79.31824
699.00,79.38843
699.50,79.35791
700.00,79.38843
700.50,79.48456
701.00,79.43573
701.50,79.45251
702.00,79.42352
702.50,79.52576
703.00,79.51050
703.50,79.47845
704.00,79.57611
704.50,79.60358
705.00,79.57458
705.50,79.66614
706.00,79.70428
706.50,79.65546
707.00,79.68140
707.50,79.68445
708.00,79.86298
708.50,79.88281
709.00,79.91486
709.50,79.98199
710.00,79.89807
710.50,79.99573
711.00,80.05219
711.50,80.03540
712.00,80.07507
712.50,80.08881
713.00,80.14984
713.50,80.16968
714.00,80.20020
714.50,80.14221
715.00,80.22766
715.50,80.23682
716.00,80.22003
716.50,80.35583
717.00,80.32532
717.50,80.37109
718.00,80.38788
718.50,80.46417
719.00,80.42450
719.50,80.44434
720.00,80.48859
720.50,80.60760
721.00,80.48553
721.50,80.67017
722.00,80.72357
722.50,80.66254
723.00,80.67017
723.50,80.67169
724.00,80.69458
724.50,80.72815
725.00,80.78308
725.50,80.80292
726.00,80.91278
726.50,80.94177
727.00,80.82428
727.50,80.85785
728.00,81.01044
728.50,80.92346
729.00,81.01807
729.50,81.05469
730.00,81.06079
730.50,81.02570
731.00,81.03180
731.50,81.23932
732.00,81.28662
732.50,81.20728
733.00,81.37817
733.50,81.39648
734.00,81.42090
734.50,81.43311
735.00,81.51550
735.50,81.52466
736.00,81.59790
736.50,81.59943
737.00,81.53687
737.50,81.64978
738.00,81.69403
738.50,81.76575
739.00,81.67267
739.50,81.76727
740.00,81.82220
740.50,81.86798
741.00,81.95496
741.50,81.96869
742.00,81.99005
742.50,82.04193
743.00,82.00226
743.50,82.15179
744.00,82.19604
744.50,82.17468
745.00,82.13196
745.50,82.17468
746.00,82.18079
746.50,82.31506
747.00,82.31049
747.50,82.43866
748.00,82.39899
748.50,82.38983
749.00,82.37762
749.50,82.49207
750.00,82.69653
750.50,82.72858
751.00,82.77740
751.50,82.66907
752.00,82.65839
752.50,82.73315
753.00,82.67517
753.50,82.85675
754.00,82.79724
754.50,82.91779
755.00,82.98035
755.50,83.00781
756.00,83.00018
756.50,83.14667
757.00,83.00781
757.50,82.98340
758.00,83.12073
758.50,83.14056
759.00,83.19244
759.50,83.28552
760.00,83.17413
760.50,83.29926
761.00,83.32062
761.50,83.39386
762.00,83.36182
762.50,83.33282
763.00,83.53271
763.50,83.49152
764.00,83.47015
764.50,83.60138
765.00,83.56628
765.50,83.68835
766.00,83.59375
766.50,83.71887
767.00,83.70514
767.50,83.80737
768.00,83.85925
768.50,83.88519
769.00,83.84705
769.50,83.77838
770.00,83.94775
770.50,84.03015
771.00,84.04236
771.50,84.10950
772.00,84.24530
772.50,84.27887
773.00,84.32617
773.50,84.28497
774.00,84.36737
774.50,84.38568
775.00,84.51080
775.50,84.44977
776.00,84.59320
776.50,84.67255
777.00,84.73969
777.50,84.71375
778.00,84.71222
778.50,84.59320
779.00,84.72595
779.50,84.66034
780.00,84.71069
780.50,84.77631
781.00,84.83429
781.50,84.85565
782.00,84.77936
782.50,85.04791
783.00,84.85260
783.50,84.86481
784.00,84.89685
784.50,84.88159
785.00,85.10284
785.50,85.27069
786.00,85.22491
786.50,85.19592
787.00,85.27832
787.50,85.21729
788.00,85.28137
788.50,85.35309
789.00,85.31647
789.50,85.33630
790.00,85.42175
790.50,85.47058
791.00,85.49042
791.50,85.55603
792.00,85.60181
792.50,85.52399
793.00,85.78186
793.50,85.64453
794.00,85.76965
794.50,85.78491
795.00,85.83374
795.50,85.92834
796.00,85.94666
796.50,85.82153
797.00,85.94055
797.50,85.98938
798.00,85.95276
798.50,86.00616
799.00,86.08093
799.50,86.02295
800.00,85.98175
800.50,86.07330
801.00,86.35101
801.50,86.22131
802.00,86.30219
802.50,86.45020
803.00,86.41357
803.50,86.38611
804.00,86.42731
804.50,86.53564
805.00,86.39679
805.50,86.54480
806.00,86.57074
806.50,86.67908
807.00,86.51123
807.50,86.64246
808.00,86.78741
808.50,86.73553
809.00,86.80725
809.50,86.75842
810.00,86.75232
810.50,86.77979
811.00,86.89270
811.50,87.03308
812.00,87.01935
812.50,87.04071
813.00,86.98883
813.50,87.10785
814.00,87.07886
814.50,87.08191
815.00,87.16278
815.50,87.21771
816.00,87.19940
816.50,87.35352
817.00,87.42981
817.50,87.36572
818.00,87.39929
818.50,87.43286
819.00,87.38098
819.50,87.37335
820.00,87.39319
820.50,87.49390
821.00,87.41760
821.50,87.54883
822.00,87.53204
822.50,87.72888
823.00,87.72736
823.50,87.70752
824.00,87.84637
824.50,87.88452
825.00,87.80212
825.50,87.73499
826.00,87.84790
826.50,87.87079
827.00,88.02795
827.50,87.96387
828.00,88.15460
828.50,88.05084
829.00,88.19885
829.50,88.24921
830.00,88.07831
830.50,88.22327
831.00,88.11340
831.50,88.20953
832.00,88.28735
832.50,88.22021
833.00,88.31177
833.50,88.15918
834.00,88.39722
834.50,88.40637
835.00,88.37585
835.50,88.30566
836.00,88.33160
836.50,88.27820
837.00,88.38196
837.50,88.34229
838.00,88.68256
838.50,88.73291
839.00,88.75580
839.50,88.77563
840.00,88.85498
840.50,88.62457
841.00,88.85498
841.50,88.85345
842.00,88.72223
842.50,88.86414
843.00,88.95874
843.50,88.92975
844.00,88.86261
844.50,88.81836
845.00,88.77258
845.50,89.07318
846.00,88.94501
846.50,89.11896
847.00,89.11285
847.50,89.11438
848.00,89.01215
848.50,89.22882
849.00,89.10370
849.50,89.34631
850.00,89.37531
850.50,89.39362
851.00,89.30817
851.50,89.39362
852.00,89.64539
852.50,89.37836
853.00,89.61029
853.50,89.38141
854.00,89.47296
854.50,89.52179
855.00,89.81476
855.50,89.57672
856.00,89.35089
856.50,89.56604
857.00,89.62097
857.50,89.46381
858.00,89.62250
858.50,89.53552
859.00,89.56604
859.50,89.65759
860.00,89.64081
860.50,89.59808
861.00,89.70032
861.50,89.80255
862.00,89.79034
862.50,89.95514
863.00,90.06042
863.50,89.80255
864.00,90.04974
864.50,90.01770
865.00,89.99634
865.50,89.87122
866.00,89.93225
866.50,90.19928
867.00,90.24200
867.50,90.01007
868.00,90.10468
868.50,90.20233
869.00,89.79340
869.50,90.19318
870.00,90.01617
870.50,89.87732
871.00,90.12756
871.50,90.33051
872.00,90.13672
872.50,90.26794
873.00,90.40070
873.50,90.68451
874.00,90.54413
874.50,90.66162
875.00,90.67078
875.50,90.55176
876.00,90.19470
876.50,90.30151
877.00,90.39764
877.50,90.39001
878.00,89.91089
878.50,89.97345
879.00,90.07111
879.50,90.34119
880.00,90.36407
880.50,90.84625
881.00,90.75317
881.50,90.25269
882.00,90.81879
882.50,90.69672
883.00,90.42511
883.50,90.55939
884.00,90.75928
884.50,90.70129
885.00,91.36963
885.50,90.80963
886.00,90.95459
886.50,91.05225
887.00,91.33606
887.50,91.27350
888.00,91.25366
888.50,91.37726
889.00,91.49323
889.50,91.01105
890.00,90.93323
890.50,90.58685
891.00,91.29639
891.50,90.81726
892.00,90.86151
892.50,90.71808
893.00,90.94391
893.50,90.30151
894.00,90.95612
894.50,90.26184
895.00,91.06598
895.50,90.82336
896.00,90.58075
896.50,91.86707
897.00,91.48407
897.50,91.35590
898.00,91.19720
898.50,91.09955
899.00,91.49323
899.50,91.60004
900.00,91.23230
900.50,90.62958
901.00,90.38391
901.50,90.68756
902.00,91.13312
902.50,90.79437
903.00,91.22925
903.50,91.07666
904.00,91.96472
904.50,91.21246
905.00,91.24298
905.50,91.10107
906.00,90.95917
906.50,91.19110
907.00,90.45868
907.50,92.03949
908.00,92.32330
908.50,91.88843
909.00,91.45508
909.50,91.07819
910.00,91.81976
910.50,89.63013
911.00,91.53595
911.50,92.43317
912.00,91.04004
912.50,91.42151
913.00,91.83350
913.50,90.76691
914.00,90.01923
914.50,90.80811
915.00,91.00189
915.50,90.08789
916.00,91.09650
916.50,90.13672
917.00,92.56439
917.50,92.18903
918.00,92.28363
918.50,94.06433
919.00,92.58270
919.50,90.80811
920.00,89.62250
920.50,90.30609
921.00,91.78314
921.50,90.02533
922.00,91.90369
922.50,90.74707
923.00,90.51056
923.50,90.02228
924.00,90.46173
924.50,91.13770
925.00,92.24548
925.50,91.47949
926.00,89.23798
926.50,89.10217
927.00,90.19470
927.50,91.22925
928.00,93.14117
928.50,91.84113
929.00,91.98151
929.50,92.29584
930.00,90.20996
930.50,90.80048
931.00,90.69519
931.50,91.56952
932.00,91.43066
932.50,89.41345
933.00,91.79230
933.50,89.83765
934.00,91.49933
934.50,91.46576
935.00,90.22217
935.50,93.13965
936.00,90.29388
936.50,88.70544
937.00,91.26282
937.50,89.45007
938.00,92.55524
938.50,89.97498
939.00,90.93475
939.50,92.44537
940.00,91.29181
940.50,90.29388
941.00,91.35132
941.50,90.66772
942.00,91.16974
942.50,89.89868
943.00,88.36365
943.50,96.03119
944.00,91.99371
944.50,90.27557
945.00,93.33344
945.50,88.64746
946.00,89.33258
946.50,93.10303
947.00,91.71600
947.50,88.22174
948.00,87.02240
948.50,91.20026
949.00,93.05267
949.50,88.92822
950.00,93.49976
