"Storage 010818 PM - RawData - C:\Users\Celal\File 110210 010818 PM.spc"
"Wavelength nm.","T%"
200.00,-0.00153
200.50,0.00610
201.00,0.00000
201.50,0.00000
202.00,-0.00153
202.50,0.00000
203.00,0.00153
203.50,0.00000
204.00,0.00000
204.50,-0.00153
205.00,-0.00153
205.50,-0.00153
206.00,-0.00153
206.50,-0.00153
207.00,0.00000
207.50,-0.00458
208.00,0.00000
208.50,-0.00153
209.00,0.00153
209.50,0.00000
210.00,0.00000
210.50,0.00000
211.00,0.00000
211.50,0.00000
212.00,0.00000
212.50,0.00000
213.00,0.00000
213.50,0.00153
214.00,0.00000
214.50,0.00153
215.00,0.00000
215.50,0.00000
216.00,0.00153
216.50,0.00153
217.00,0.00000
217.50,0.00153
218.00,0.00153
218.50,0.00000
219.00,0.00153
219.50,0.00153
220.00,0.00153
220.50,0.00458
221.00,0.00458
221.50,0.00458
222.00,0.00763
222.50,0.01068
223.00,0.01373
223.50,0.01373
224.00,0.01678
224.50,0.01984
225.00,0.02594
225.50,0.03204
226.00,0.04425
226.50,0.04730
227.00,0.05341
227.50,0.06561
228.00,0.07172
228.50,0.08392
229.00,0.09918
229.50,0.10986
230.00,0.12817
230.50,0.14191
231.00,0.15411
231.50,0.17242
232.00,0.19226
232.50,0.21362
233.00,0.23651
233.50,0.26245
234.00,0.28839
234.50,0.32349
235.00,0.35095
235.50,0.38452
236.00,0.41656
236.50,0.46234
237.00,0.49133
237.50,0.54321
238.00,0.58899
238.50,0.64392
239.00,0.69885
239.50,0.76141
240.00,0.81177
240.50,0.86670
241.00,0.94147
241.50,1.01471
242.00,1.10016
242.50,1.17645
243.00,1.26495
243.50,1.36414
244.00,1.47095
244.50,1.55334
245.00,1.68610
245.50,1.79749
246.00,1.91498
246.50,2.03552
247.00,2.17285
247.50,2.29340
248.00,2.43530
248.50,2.60925
249.00,2.74658
249.50,2.91138
250.00,3.05176
250.50,3.23639
251.00,3.40729
251.50,3.59192
252.00,3.79486
252.50,3.97644
253.00,4.19159
253.50,4.36249
254.00,4.61273
254.50,4.81567
255.00,5.03082
255.50,5.28717
256.00,5.52368
256.50,5.76019
257.00,6.03638
257.50,6.29272
258.00,6.53839
258.50,6.76880
259.00,7.04803
259.50,7.29523
260.00,7.59277
260.50,7.84149
261.00,8.11768
261.50,8.38318
262.00,8.65631
262.50,8.92639
263.00,9.19037
263.50,9.51385
264.00,9.71985
264.50,10.04486
265.00,10.25543
265.50,10.50568
266.00,10.79254
266.50,11.10229
267.00,11.27319
267.50,11.56158
268.00,11.80420
268.50,12.08954
269.00,12.38861
269.50,12.59613
270.00,12.85553
270.50,13.07678
271.00,13.35144
271.50,13.59711
272.00,13.93585
272.50,14.14032
273.00,14.43939
273.50,14.64996
274.00,14.92310
274.50,15.16571
275.00,15.40375
275.50,15.68451
276.00,15.99121
276.50,16.26434
277.00,16.54358
277.50,16.83502
278.00,17.14935
278.50,17.50946
279.00,17.77496
279.50,18.07404
280.00,18.37158
280.50,18.69659
281.00,19.08722
281.50,19.34814
282.00,19.74182
282.50,20.10803
283.00,20.45898
283.50,20.81909
284.00,21.24634
284.50,21.65222
285.00,22.11914
285.50,22.44568
286.00,22.84393
286.50,23.27118
287.00,23.66486
287.50,24.09668
288.00,24.58344
288.50,25.02899
289.00,25.53711
289.50,25.98877
290.00,26.48163
290.50,26.98822
291.00,27.38037
291.50,27.94952
292.00,28.44849
292.50,29.04816
293.00,29.50287
293.50,30.04761
294.00,30.43365
294.50,31.09894
295.00,31.81610
295.50,32.44019
296.00,33.03680
296.50,33.51746
297.00,34.13086
297.50,34.66492
298.00,35.28137
298.50,36.01227
299.00,36.76605
299.50,37.32758
300.00,37.92877
300.50,38.62152
301.00,39.38141
301.50,39.95514
302.00,40.72876
302.50,41.43066
303.00,42.13104
303.50,42.79022
304.00,43.55621
304.50,44.14063
305.00,44.90051
305.50,45.60547
306.00,46.14563
306.50,46.87958
307.00,47.48383
307.50,48.35205
308.00,48.81134
308.50,49.82300
309.00,50.58441
309.50,51.19476
310.00,51.93481
310.50,52.67334
311.00,53.42255
311.50,54.39148
312.00,55.01404
312.50,55.66406
313.00,56.27136
313.50,57.11975
314.00,57.69958
314.50,58.46100
315.00,58.95691
315.50,59.67407
316.00,60.42938
316.50,61.01837
317.00,61.47919
317.50,62.24670
318.00,62.84790
318.50,63.48267
319.00,64.14032
319.50,64.83307
320.00,65.38696
320.50,65.78979
321.00,66.26434
321.50,66.74347
322.00,67.29736
322.50,67.72614
323.00,68.21747
323.50,68.57300
324.00,68.99109
324.50,69.59534
325.00,69.91425
325.50,70.15533
326.00,70.47272
326.50,70.95490
327.00,71.07544
327.50,71.51794
328.00,71.87653
328.50,72.07489
329.00,72.31598
329.50,72.78290
330.00,72.82257
330.50,73.31085
331.00,73.43292
331.50,73.54279
332.00,73.93799
332.50,74.14246
333.00,74.35913
333.50,74.52850
334.00,74.83826
334.50,74.82605
335.00,75.04883
335.50,74.81537
336.00,75.08087
336.50,75.35706
337.00,75.18616
337.50,75.42572
338.00,75.39978
338.50,75.77057
339.00,75.83618
339.50,75.95978
340.00,76.11237
340.50,75.99640
341.00,76.47705
341.50,76.46484
342.00,76.42517
342.50,76.20850
343.00,76.65558
343.50,76.82800
344.00,76.81885
344.50,76.80359
345.00,76.75171
345.50,77.00806
346.00,76.94550
346.50,76.97449
347.00,77.12708
347.50,77.16980
348.00,77.20184
348.50,77.30560
349.00,77.52075
349.50,77.25525
350.00,77.54974
350.50,77.63367
351.00,77.56500
351.50,77.65503
352.00,77.77252
352.50,77.58179
353.00,77.61688
353.50,77.89459
354.00,77.78320
354.50,77.91901
355.00,78.16925
355.50,78.01819
356.00,78.01819
356.50,78.28827
357.00,78.52936
357.50,78.52020
358.00,78.62396
358.50,78.73993
359.00,78.79944
359.50,79.01306
360.00,79.02679
360.50,78.84979
361.00,79.08478
361.50,78.99170
362.00,79.34113
362.50,79.19769
363.00,79.42963
363.50,79.56085
364.00,79.77905
364.50,79.85229
365.00,79.98352
365.50,80.04456
366.00,80.23834
366.50,80.11932
367.00,80.42603
367.50,80.34363
368.00,80.58777
368.50,80.80444
369.00,81.06995
369.50,81.12640
370.00,81.17523
370.50,81.24237
371.00,81.50024
371.50,81.58722
372.00,81.66351
372.50,81.82068
373.00,82.01294
373.50,82.17468
374.00,82.27081
374.50,82.51648
375.00,82.58972
375.50,82.71179
376.00,82.77588
376.50,82.98950
377.00,83.11005
377.50,83.27332
378.00,83.32367
378.50,83.69446
379.00,83.87299
379.50,83.92029
380.00,84.00116
380.50,84.28040
381.00,84.35211
381.50,84.57184
382.00,84.75342
382.50,84.85565
383.00,84.94568
383.50,85.03265
384.00,85.37445
384.50,85.33020
385.00,85.52399
385.50,85.64453
386.00,85.62927
386.50,86.11908
387.00,86.19385
387.50,86.22437
388.00,86.38611
388.50,86.51886
389.00,86.70807
389.50,86.88507
390.00,87.10480
390.50,87.17194
391.00,87.40234
391.50,87.47559
392.00,87.71667
392.50,87.71973
393.00,87.87079
393.50,88.04474
394.00,88.22632
394.50,88.51318
395.00,88.60168
395.50,88.60626
396.00,88.78937
396.50,88.95264
397.00,89.15405
397.50,89.23950
398.00,89.30664
398.50,89.38293
399.00,89.43481
399.50,89.58435
400.00,89.71710
400.50,89.75983
401.00,89.85901
401.50,90.09705
402.00,90.22217
402.50,90.27863
403.00,90.31830
403.50,90.36865
404.00,90.53802
404.50,90.67841
405.00,90.77454
405.50,90.78522
406.00,90.95459
406.50,91.08887
407.00,91.06140
407.50,91.16211
408.00,91.02936
408.50,91.18347
409.00,91.28723
409.50,91.32996
410.00,91.33759
410.50,91.38947
411.00,91.45508
411.50,91.43066
412.00,91.59088
412.50,91.60461
413.00,91.66565
413.50,91.66718
414.00,91.65039
414.50,91.78009
415.00,91.68701
415.50,91.69159
416.00,91.82739
416.50,91.62292
417.00,91.75568
417.50,91.69617
418.00,91.77856
418.50,91.90216
419.00,91.83502
419.50,91.94794
420.00,91.90063
420.50,91.76178
421.00,91.66565
421.50,91.67175
422.00,91.64734
422.50,91.66718
423.00,91.56189
423.50,91.58630
424.00,91.54510
424.50,91.51611
425.00,91.50391
425.50,91.45203
426.00,91.43982
426.50,91.44440
427.00,91.32996
427.50,91.31622
428.00,91.37421
428.50,91.32385
429.00,91.21094
429.50,91.16516
430.00,91.04614
430.50,90.95764
431.00,90.93323
431.50,90.76538
432.00,90.71960
432.50,90.73181
433.00,90.72723
433.50,90.67383
434.00,90.74860
434.50,90.50446
435.00,90.31830
435.50,90.29694
436.00,90.25574
436.50,90.31830
437.00,90.25421
437.50,89.92920
438.00,89.92615
438.50,89.83002
439.00,89.76898
439.50,89.63623
440.00,89.55231
440.50,89.46533
441.00,89.51111
441.50,89.38599
442.00,89.36462
442.50,89.11591
443.00,89.12048
443.50,89.06250
444.00,88.90228
444.50,88.76190
445.00,88.76343
445.50,88.72070
446.00,88.63220
446.50,88.50555
447.00,88.43536
447.50,88.36212
448.00,88.26599
448.50,88.17749
449.00,88.16833
449.50,87.97913
450.00,87.90588
450.50,87.91199
451.00,87.80518
451.50,87.75940
452.00,87.67242
452.50,87.55035
453.00,87.48932
453.50,87.42218
454.00,87.31079
454.50,87.25433
455.00,87.15820
455.50,87.18414
456.00,87.13989
456.50,87.07123
457.00,86.84998
457.50,86.79962
458.00,86.78284
458.50,86.68671
459.00,86.64856
459.50,86.56616
460.00,86.49597
460.50,86.33575
461.00,86.22589
461.50,86.18622
462.00,86.11603
462.50,86.13739
463.00,86.05652
463.50,86.12823
464.00,86.01227
464.50,85.79865
465.00,85.82001
465.50,85.71472
466.00,85.64911
466.50,85.64606
467.00,85.59570
467.50,85.40344
468.00,85.46448
468.50,85.31799
469.00,85.20203
469.50,85.33783
470.00,85.27069
470.50,85.03113
471.00,85.07080
471.50,85.05707
472.00,84.96857
472.50,84.96857
473.00,84.84039
473.50,84.79309
474.00,84.73206
474.50,84.73969
475.00,84.70001
475.50,84.70917
476.00,84.56116
476.50,84.55353
477.00,84.50470
477.50,84.46350
478.00,84.55811
478.50,84.48029
479.00,84.53979
479.50,84.32770
480.00,84.34296
480.50,84.31549
481.00,84.33380
481.50,84.16595
482.00,84.20563
482.50,84.20715
483.00,84.26819
483.50,84.19189
484.00,84.20868
484.50,84.16138
485.00,84.20563
485.50,84.09882
486.00,84.03473
486.50,84.04541
487.00,84.02100
487.50,84.10339
488.00,84.10034
488.50,84.05457
489.00,84.08661
489.50,84.05914
490.00,83.99200
490.50,83.87146
491.00,83.96912
491.50,83.90961
492.00,83.91113
492.50,83.92181
493.00,83.99963
493.50,83.92181
494.00,83.93555
494.50,83.98743
495.00,83.98743
495.50,83.92792
496.00,83.92792
496.50,84.03015
497.00,83.95386
497.50,83.98743
498.00,83.94928
498.50,83.92944
499.00,84.00726
499.50,84.02405
500.00,83.98590
500.50,83.96149
501.00,84.00116
501.50,84.01184
502.00,84.04236
502.50,84.01489
503.00,84.03625
503.50,84.14459
504.00,84.08203
504.50,84.06982
505.00,84.15680
505.50,84.26514
506.00,84.29565
506.50,84.26208
507.00,84.30328
507.50,84.35211
508.00,84.34448
508.50,84.32312
509.00,84.32922
509.50,84.41925
510.00,84.45740
510.50,84.51843
511.00,84.53979
511.50,84.55505
512.00,84.62219
512.50,84.69391
513.00,84.62524
513.50,84.60999
514.00,84.79004
514.50,84.80682
515.00,84.91821
515.50,84.95636
516.00,84.85107
516.50,84.85260
517.00,84.89838
517.50,85.01740
518.00,85.03265
518.50,85.05249
519.00,85.10437
519.50,85.14252
520.00,85.17151
520.50,85.28900
521.00,85.27374
521.50,85.48431
522.00,85.44159
522.50,85.49652
523.00,85.42023
523.50,85.53467
524.00,85.51331
524.50,85.64453
525.00,85.66742
525.50,85.71014
526.00,85.71625
526.50,85.80322
527.00,85.86426
527.50,85.84290
528.00,85.86273
528.50,85.96649
529.00,85.96649
529.50,86.00159
530.00,86.07941
530.50,86.20453
531.00,86.20300
531.50,86.34796
532.00,86.31287
532.50,86.31134
533.00,86.27319
533.50,86.46240
534.00,86.42731
534.50,86.59668
535.00,86.74469
535.50,86.75537
536.00,86.71265
536.50,86.78589
537.00,86.79199
537.50,86.85760
538.00,86.90338
538.50,86.99799
539.00,87.07581
539.50,87.21466
540.00,87.15973
540.50,87.21313
541.00,87.21466
541.50,87.31384
542.00,87.38708
542.50,87.49542
543.00,87.48932
543.50,87.55493
544.00,87.62817
544.50,87.68005
545.00,87.71057
545.50,87.74719
546.00,87.83112
546.50,87.75024
547.00,87.91351
547.50,88.02490
548.00,88.06915
548.50,88.09967
549.00,88.17596
549.50,88.24158
550.00,88.24005
550.50,88.33008
551.00,88.43079
551.50,88.45978
552.00,88.48724
552.50,88.58032
553.00,88.57880
553.50,88.62000
554.00,88.76495
554.50,88.74664
555.00,88.81226
555.50,88.86108
556.00,88.92975
556.50,88.82446
557.00,88.95111
557.50,89.03656
558.00,89.09149
558.50,89.10980
559.00,89.18915
559.50,89.16931
560.00,89.18304
560.50,89.26697
561.00,89.36310
561.50,89.43787
562.00,89.42108
562.50,89.50043
563.00,89.53857
563.50,89.64386
564.00,89.59351
564.50,89.71863
565.00,89.77203
565.50,89.79797
566.00,89.89105
566.50,89.93530
567.00,89.99023
567.50,90.12299
568.00,90.11536
568.50,90.13367
569.00,90.15503
569.50,90.23895
570.00,90.35645
570.50,90.30304
571.00,90.39307
571.50,90.42053
572.00,90.45563
572.50,90.49530
573.00,90.59753
573.50,90.53650
574.00,90.55786
574.50,90.66620
575.00,90.73486
575.50,90.74554
576.00,90.80353
576.50,90.88745
577.00,90.93170
577.50,90.97290
578.00,90.96985
578.50,91.05530
579.00,91.02325
579.50,91.00494
580.00,91.05225
580.50,91.06750
581.00,91.13617
581.50,91.27045
582.00,91.19720
582.50,91.33453
583.00,91.37421
583.50,91.40320
584.00,91.31927
584.50,91.42151
585.00,91.39557
585.50,91.52069
586.00,91.49475
586.50,91.53900
587.00,91.55121
587.50,91.68854
588.00,91.66870
588.50,91.70990
589.00,91.70685
589.50,91.62292
590.00,91.74500
590.50,91.74652
591.00,91.70227
591.50,91.83960
592.00,91.75873
592.50,91.85486
593.00,91.92963
593.50,91.93573
594.00,91.94641
594.50,91.89911
595.00,91.98608
595.50,91.92505
596.00,91.93268
596.50,91.90063
597.00,92.06543
597.50,91.99219
598.00,92.03491
598.50,92.07001
599.00,92.04254
599.50,91.98914
600.00,92.10815
600.50,92.09595
601.00,92.07153
601.50,92.06238
602.00,92.09290
602.50,92.10052
603.00,92.26379
603.50,92.18445
604.00,92.22870
604.50,92.21649
605.00,92.25769
605.50,92.18445
606.00,92.25311
606.50,92.25311
607.00,92.30347
607.50,92.26532
608.00,92.31110
608.50,92.24243
609.00,92.26990
609.50,92.29279
610.00,92.23480
610.50,92.25769
611.00,92.31415
611.50,92.30499
612.00,92.30042
612.50,92.39807
613.00,92.33246
613.50,92.36145
614.00,92.41638
614.50,92.26532
615.00,92.35535
615.50,92.33246
616.00,92.34467
616.50,92.26990
617.00,92.38586
617.50,92.30042
618.00,92.27448
618.50,92.26685
619.00,92.25464
619.50,92.32178
620.00,92.29279
620.50,92.34009
621.00,92.30804
621.50,92.32025
622.00,92.27753
622.50,92.31110
623.00,92.30652
623.50,92.30499
624.00,92.13867
624.50,92.22107
625.00,92.24854
625.50,92.13715
626.00,92.19513
626.50,92.13257
627.00,92.06543
627.50,92.20734
628.00,92.14935
628.50,92.07764
629.00,92.13257
629.50,92.13104
630.00,92.13715
630.50,92.18140
631.00,92.11884
631.50,92.09747
632.00,92.03644
632.50,92.03949
633.00,92.07153
633.50,92.03949
634.00,91.96930
634.50,91.94489
635.00,91.96014
635.50,91.83960
636.00,91.92352
636.50,91.90826
637.00,91.83655
637.50,91.86096
638.00,91.81213
638.50,91.84265
639.00,91.79382
639.50,91.74500
640.00,91.83044
640.50,91.72363
641.00,91.77856
641.50,91.77246
642.00,91.76788
642.50,91.63666
643.00,91.52069
643.50,91.57104
644.00,91.52069
644.50,91.49628
645.00,91.57104
645.50,91.54816
646.00,91.44440
646.50,91.54205
647.00,91.44440
647.50,91.34216
648.00,91.34369
648.50,91.25519
649.00,91.36200
649.50,91.32385
650.00,91.22314
650.50,91.30554
651.00,91.27808
651.50,91.26740
652.00,91.14380
652.50,91.19568
653.00,91.11176
653.50,91.13464
654.00,91.25214
654.50,91.12396
655.00,91.06598
655.50,91.00800
656.00,90.98969
656.50,90.99426
657.00,91.00342
657.50,91.01257
658.00,90.96985
658.50,90.85541
659.00,90.93781
659.50,90.77301
660.00,90.75623
660.50,90.75928
661.00,90.62653
661.50,90.57312
662.00,90.57617
662.50,90.61890
663.00,90.62042
663.50,90.63568
664.00,90.61432
664.50,90.58075
665.00,90.54718
665.50,90.37933
666.00,90.43121
666.50,90.37628
667.00,90.38696
667.50,90.28168
668.00,90.22675
668.50,90.17029
669.00,90.11993
669.50,90.02075
670.00,90.14130
670.50,90.15045
671.00,90.15198
671.50,90.02075
672.00,90.12756
672.50,90.02533
673.00,89.90173
673.50,89.89105
674.00,89.90326
674.50,89.84833
675.00,89.72473
675.50,89.78729
676.00,89.70795
676.50,89.65149
677.00,89.80560
677.50,89.63623
678.00,89.57825
678.50,89.60724
679.00,89.58282
679.50,89.53705
680.00,89.53857
680.50,89.52179
681.00,89.52179
681.50,89.52789
682.00,89.41956
682.50,89.47449
683.00,89.30664
683.50,89.32648
684.00,89.26239
684.50,89.17999
685.00,89.24255
685.50,89.20593
686.00,89.21509
686.50,89.13116
687.00,89.06250
687.50,89.06708
688.00,88.97705
688.50,88.93585
689.00,88.82599
689.50,88.85803
690.00,88.89160
690.50,88.80615
691.00,88.71765
691.50,88.70239
692.00,88.68408
692.50,88.68866
693.00,88.62610
693.50,88.60168
694.00,88.57117
694.50,88.57422
695.00,88.51624
695.50,88.54828
696.00,88.48267
696.50,88.50403
697.00,88.46283
697.50,88.55896
698.00,88.36823
698.50,88.45215
699.00,88.32855
699.50,88.32855
700.00,88.36975
700.50,88.25226
701.00,88.26141
701.50,88.20496
702.00,88.09052
702.50,88.03253
703.00,87.98828
703.50,87.95929
704.00,88.06000
704.50,87.91962
705.00,87.91962
705.50,87.82349
706.00,87.74261
706.50,87.80212
707.00,87.70142
707.50,87.75330
708.00,87.73346
708.50,87.67853
709.00,87.69226
709.50,87.74719
710.00,87.63428
710.50,87.60681
711.00,87.52441
711.50,87.53357
712.00,87.48016
712.50,87.44507
713.00,87.55951
713.50,87.48932
714.00,87.39929
714.50,87.37946
715.00,87.24823
715.50,87.31842
716.00,87.23145
716.50,87.13989
717.00,87.20093
717.50,87.12769
718.00,87.09259
718.50,87.12921
719.00,87.21161
719.50,87.03918
720.00,87.04224
720.50,87.06360
721.00,87.04071
721.50,87.02698
722.00,86.95221
722.50,86.80573
723.00,86.86371
723.50,86.85303
724.00,86.74774
724.50,86.87286
725.00,86.68060
725.50,86.75079
726.00,86.76147
726.50,86.62567
727.00,86.63330
727.50,86.64551
728.00,86.65466
728.50,86.51428
729.00,86.53717
729.50,86.47461
730.00,86.50360
730.50,86.49139
731.00,86.43646
731.50,86.46240
732.00,86.44104
732.50,86.37390
733.00,86.37390
733.50,86.44104
734.00,86.33881
734.50,86.37695
735.00,86.33118
735.50,86.26556
736.00,86.30676
736.50,86.21674
737.00,86.23352
737.50,86.29913
738.00,86.19080
738.50,86.10535
739.00,86.02295
739.50,86.01837
740.00,85.98480
740.50,86.10992
741.00,85.98328
741.50,85.90393
742.00,85.98328
742.50,85.89630
743.00,85.88409
743.50,85.85510
744.00,85.82916
744.50,85.84900
745.00,85.72083
745.50,85.71777
746.00,85.73456
746.50,85.83069
747.00,85.80933
747.50,85.78033
748.00,85.75134
748.50,85.69336
749.00,85.64301
749.50,85.80017
750.00,85.73303
750.50,85.80322
751.00,85.71472
751.50,85.61707
752.00,85.54688
752.50,85.61096
753.00,85.61554
753.50,85.53619
754.00,85.51178
754.50,85.56061
755.00,85.63538
755.50,85.50873
756.00,85.63995
756.50,85.52399
757.00,85.54993
757.50,85.46753
758.00,85.43243
758.50,85.39581
759.00,85.34393
759.50,85.47516
760.00,85.36224
760.50,85.28595
761.00,85.21118
761.50,85.23560
762.00,85.27985
762.50,85.21729
763.00,85.15320
763.50,85.07538
764.00,85.10437
764.50,85.28748
765.00,85.13184
765.50,85.10895
766.00,85.08759
766.50,85.03418
767.00,85.13947
767.50,85.13184
768.00,85.15930
768.50,85.02655
769.00,85.05554
769.50,84.91058
770.00,84.90295
770.50,84.98688
771.00,84.97314
771.50,85.05402
772.00,84.95636
772.50,85.07385
773.00,85.02045
773.50,85.02808
774.00,84.90753
774.50,84.97772
775.00,85.00519
775.50,85.08911
776.00,85.07843
776.50,84.98077
777.00,85.14862
777.50,85.02655
778.00,85.02045
778.50,85.04486
779.00,84.71222
779.50,84.87854
780.00,84.85718
780.50,84.73816
781.00,84.87091
781.50,84.80682
782.00,84.68475
782.50,84.76257
783.00,84.81140
783.50,84.70612
784.00,84.63287
784.50,84.71527
785.00,84.73511
785.50,84.74731
786.00,84.89227
786.50,84.79767
787.00,84.73206
787.50,84.76563
788.00,84.70154
788.50,84.75189
789.00,84.68933
789.50,84.72443
790.00,84.72443
790.50,84.65424
791.00,84.80072
791.50,84.66187
792.00,84.66797
792.50,84.60083
793.00,84.56421
793.50,84.65729
794.00,84.72137
794.50,84.51538
795.00,84.63898
795.50,84.68323
796.00,84.66492
796.50,84.77478
797.00,84.56726
797.50,84.64813
798.00,84.64203
798.50,84.64050
799.00,84.60693
799.50,84.46960
800.00,84.61761
800.50,84.59320
801.00,84.59320
801.50,84.63287
802.00,84.58099
802.50,84.57947
803.00,84.67102
803.50,84.70612
804.00,84.66797
804.50,84.49554
805.00,84.55811
805.50,84.60541
806.00,84.55505
806.50,84.57031
807.00,84.52911
807.50,84.62524
808.00,84.58862
808.50,84.61304
809.00,84.51996
809.50,84.59167
810.00,84.56116
810.50,84.49249
811.00,84.46503
811.50,84.51538
812.00,84.60083
812.50,84.61456
813.00,84.64203
813.50,84.51385
814.00,84.64050
814.50,84.53064
815.00,84.60541
815.50,84.67865
816.00,84.68628
816.50,84.67102
817.00,84.68933
817.50,84.66034
818.00,84.57642
818.50,84.64966
819.00,84.54742
819.50,84.63440
820.00,84.65424
820.50,84.46808
821.00,84.42993
821.50,84.52759
822.00,84.67255
822.50,84.73358
823.00,84.53674
823.50,84.55658
824.00,84.60541
824.50,84.64813
825.00,84.49554
825.50,84.45129
826.00,84.64661
826.50,84.58405
827.00,84.62372
827.50,84.60541
828.00,84.69849
828.50,84.57947
829.00,84.57336
829.50,84.63135
830.00,84.67712
830.50,84.79614
831.00,84.83429
831.50,84.74426
832.00,84.76410
832.50,84.76410
833.00,84.71069
833.50,84.63745
834.00,84.60541
834.50,84.68933
835.00,84.77173
835.50,84.58862
836.00,84.67865
836.50,84.73358
837.00,84.60693
837.50,84.56726
838.00,84.59473
838.50,84.65576
839.00,84.74579
839.50,84.66644
840.00,84.86328
840.50,84.76257
841.00,84.88312
841.50,84.74884
842.00,84.84650
842.50,84.79462
843.00,84.83429
843.50,84.79309
844.00,84.65881
844.50,84.77631
845.00,84.74579
845.50,84.77020
846.00,84.99451
846.50,84.92737
847.00,84.76868
847.50,84.80225
848.00,84.72900
848.50,85.04028
849.00,84.92279
849.50,85.12726
850.00,85.04639
850.50,84.95636
851.00,85.06470
851.50,84.86633
852.00,84.94110
852.50,84.97009
853.00,85.02655
853.50,84.94415
854.00,84.94263
854.50,84.85718
855.00,84.85565
855.50,85.05249
856.00,84.97162
856.50,85.11200
857.00,84.87854
857.50,84.86328
858.00,84.84039
858.50,85.26306
859.00,85.10742
859.50,85.05859
860.00,85.19440
860.50,85.02502
861.00,85.11810
861.50,84.91669
862.00,85.18677
862.50,85.19440
863.00,85.20966
863.50,85.00366
864.00,85.06165
864.50,84.98688
865.00,84.79004
865.50,85.24780
866.00,84.96704
866.50,85.21271
867.00,84.95483
867.50,85.39886
868.00,85.20050
868.50,84.99146
869.00,85.00671
869.50,85.04791
870.00,85.02502
870.50,85.06927
871.00,84.98535
871.50,85.36224
872.00,85.22491
872.50,85.34698
873.00,85.13641
873.50,85.55756
874.00,85.26306
874.50,85.52094
875.00,85.65216
875.50,85.51636
876.00,85.52246
876.50,85.04639
877.00,85.19745
877.50,85.00214
878.00,85.17914
878.50,84.71375
879.00,85.23407
879.50,85.15167
880.00,85.55908
880.50,85.32257
881.00,85.64911
881.50,85.54535
882.00,85.78033
882.50,85.51178
883.00,85.75592
883.50,85.40497
884.00,85.69031
884.50,85.60333
885.00,85.27832
885.50,85.62775
886.00,86.41510
886.50,86.06110
887.00,86.28845
887.50,86.37543
888.00,85.20355
888.50,86.12823
889.00,85.71472
889.50,85.71930
890.00,85.77271
890.50,86.40289
891.00,86.14655
891.50,85.65979
892.00,85.40192
892.50,85.58807
893.00,85.83832
893.50,85.35004
894.00,85.87494
894.50,85.52246
895.00,85.50873
895.50,85.78186
896.00,85.35461
896.50,85.60181
897.00,85.70404
897.50,86.45325
898.00,85.87952
898.50,86.57532
899.00,85.99548
899.50,85.75134
900.00,85.60486
900.50,85.25085
901.00,85.23865
901.50,84.80072
902.00,85.83679
902.50,85.95734
903.00,86.31287
903.50,85.71320
904.00,86.00311
904.50,86.46698
905.00,86.00616
905.50,87.06512
906.00,84.97314
906.50,86.14655
907.00,86.17554
907.50,85.48737
908.00,86.80267
908.50,86.55548
909.00,86.61041
909.50,86.26709
910.00,85.66132
910.50,85.49194
911.00,85.59723
911.50,85.28748
912.00,86.29608
912.50,85.73303
913.00,85.97412
913.50,85.54535
914.00,85.56213
914.50,86.01227
915.00,86.59058
915.50,84.65576
916.00,85.05859
916.50,85.75287
917.00,86.78436
917.50,85.92987
918.00,86.25946
918.50,86.97815
919.00,88.20496
919.50,85.27069
920.00,85.82306
920.50,84.80835
921.00,85.64148
921.50,86.66534
922.00,86.55548
922.50,86.55548
923.00,85.53772
923.50,84.87091
924.00,85.59418
924.50,85.85205
925.00,86.96289
925.50,84.68475
926.00,84.01184
926.50,83.40607
927.00,84.48181
927.50,85.93292
928.00,86.11298
928.50,87.64191
929.00,86.24268
929.50,87.24060
930.00,84.74274
930.50,86.98883
931.00,86.46088
931.50,87.38098
932.00,85.83221
932.50,85.58350
933.00,87.30621
933.50,84.50012
934.00,85.76660
934.50,86.29761
935.00,83.88977
935.50,86.23199
936.00,85.74982
936.50,84.33228
937.00,86.88660
937.50,84.42383
938.00,85.05249
938.50,87.36572
939.00,88.56964
939.50,87.69379
940.00,87.59613
940.50,88.37433
941.00,88.78021
941.50,85.24017
942.00,86.77979
942.50,87.10785
943.00,85.57739
943.50,87.70142
944.00,90.43579
944.50,84.76105
945.00,84.15833
945.50,82.97729
946.00,83.43964
946.50,83.08258
947.00,84.19037
947.50,86.81335
948.00,85.69336
948.50,88.28583
949.00,83.78143
949.50,84.21936
950.00,85.11505
