"Storage 011426 PM - RawData - C:\Users\Kyung\Feb102011\UV\File 110210 011426 PM.spc"
"Wavelength nm.","T%"
200.00,-0.00153
200.50,-0.00458
201.00,0.00000
201.50,0.00153
202.00,0.00000
202.50,0.00000
203.00,-0.00153
203.50,-0.00458
204.00,0.00153
204.50,0.00000
205.00,0.00000
205.50,0.00153
206.00,0.00000
206.50,0.00000
207.00,0.00458
207.50,0.00153
208.00,0.00763
208.50,0.00000
209.00,0.00153
209.50,0.00153
210.00,0.00458
210.50,0.00458
211.00,0.00153
211.50,0.00153
212.00,0.00458
212.50,0.00153
213.00,0.00458
213.50,0.00153
214.00,0.00153
214.50,0.00458
215.00,0.00763
215.50,0.00458
216.00,0.00458
216.50,0.00458
217.00,0.00458
217.50,0.00763
218.00,0.00458
218.50,0.00458
219.00,0.00458
219.50,0.00458
220.00,0.00458
220.50,0.00458
221.00,0.00763
221.50,0.00763
222.00,0.00763
222.50,0.01068
223.00,0.01373
223.50,0.01373
224.00,0.01984
224.50,0.02289
225.00,0.02289
225.50,0.02899
226.00,0.03204
226.50,0.03815
227.00,0.04120
227.50,0.05341
228.00,0.05951
228.50,0.06561
229.00,0.07782
229.50,0.07782
230.00,0.09460
230.50,0.10529
231.00,0.11444
231.50,0.12665
232.00,0.14496
232.50,0.15411
233.00,0.17700
233.50,0.18921
234.00,0.20599
234.50,0.22888
235.00,0.24567
235.50,0.27771
236.00,0.30060
236.50,0.32806
237.00,0.35400
237.50,0.39063
238.00,0.42572
238.50,0.47150
239.00,0.51575
239.50,0.54779
240.00,0.59967
240.50,0.65613
241.00,0.71564
241.50,0.77667
242.00,0.84991
242.50,0.91858
243.00,0.99335
243.50,1.07269
244.00,1.15509
244.50,1.24664
245.00,1.34125
245.50,1.44958
246.00,1.55945
246.50,1.68304
247.00,1.80054
247.50,1.93176
248.00,2.04773
248.50,2.21252
249.00,2.35138
249.50,2.51160
250.00,2.66418
250.50,2.83661
251.00,2.99683
251.50,3.17841
252.00,3.38287
252.50,3.55530
253.00,3.73077
253.50,3.93829
254.00,4.15192
254.50,4.33960
255.00,4.55780
255.50,4.78821
256.00,5.00793
256.50,5.22766
257.00,5.46417
257.50,5.73273
258.00,5.95245
258.50,6.21643
259.00,6.48041
259.50,6.69708
260.00,6.95496
260.50,7.20673
261.00,7.46307
261.50,7.70569
262.00,7.95898
262.50,8.25043
263.00,8.48999
263.50,8.77228
264.00,9.00726
264.50,9.25446
265.00,9.53674
265.50,9.76105
266.00,10.03876
266.50,10.28748
267.00,10.56061
267.50,10.79559
268.00,11.02753
268.50,11.30676
269.00,11.55853
269.50,11.79962
270.00,11.98120
270.50,12.28485
271.00,12.58545
271.50,12.79449
272.00,13.06152
272.50,13.34381
273.00,13.62305
273.50,13.87024
274.00,14.13879
274.50,14.38141
275.00,14.58435
275.50,14.88495
276.00,15.17639
276.50,15.51971
277.00,15.78522
277.50,16.08429
278.00,16.41541
278.50,16.65344
279.00,16.97388
279.50,17.28516
280.00,17.64984
280.50,17.95502
281.00,18.29987
281.50,18.67218
282.00,19.07196
282.50,19.38629
283.00,19.62585
283.50,20.00885
284.00,20.45593
284.50,20.80536
285.00,21.23566
285.50,21.52100
286.00,21.95282
286.50,22.39075
287.00,22.74780
287.50,23.17963
288.00,23.53516
288.50,23.97003
289.00,24.40033
289.50,24.78333
290.00,25.18921
290.50,25.67596
291.00,26.08032
291.50,26.64642
292.00,27.02179
292.50,27.49176
293.00,28.01056
293.50,28.43170
294.00,28.97491
294.50,29.47998
295.00,29.98047
295.50,30.54657
296.00,31.12640
296.50,31.55212
297.00,32.16553
297.50,32.60040
298.00,33.16193
298.50,33.93555
299.00,34.44672
299.50,34.96246
300.00,35.53009
300.50,36.14960
301.00,36.72638
301.50,37.31537
302.00,38.03101
302.50,38.56659
303.00,39.13116
303.50,39.88342
304.00,40.39917
304.50,41.01105
305.00,41.62140
305.50,42.21649
306.00,42.89246
306.50,43.45703
307.00,43.89343
307.50,44.72809
308.00,45.39337
308.50,46.11511
309.00,46.87958
309.50,47.60895
310.00,48.25287
310.50,48.80829
311.00,49.57123
311.50,50.31281
312.00,51.08185
312.50,51.69983
313.00,52.54364
313.50,53.31879
314.00,54.00238
314.50,54.62799
315.00,55.39703
315.50,55.99213
316.00,56.75507
316.50,57.31049
317.00,58.14667
317.50,58.94623
318.00,59.61761
318.50,60.21576
319.00,60.97412
319.50,61.61346
320.00,62.36267
320.50,63.12256
321.00,63.58643
321.50,64.31274
322.00,65.01465
322.50,65.64331
323.00,66.20636
323.50,66.87164
324.00,67.44690
324.50,67.99469
325.00,68.62946
325.50,69.00177
326.00,69.78455
326.50,70.13245
327.00,70.84656
327.50,71.27380
328.00,71.68121
328.50,72.16339
329.00,72.56622
329.50,73.12469
330.00,73.40546
330.50,74.13177
331.00,74.39575
331.50,74.75891
332.00,75.32501
332.50,75.86212
333.00,76.23291
333.50,76.53046
334.00,76.97906
334.50,77.12555
335.00,77.40173
335.50,77.76031
336.00,78.14789
336.50,78.14789
337.00,78.51257
337.50,78.91693
338.00,79.01917
338.50,79.28772
339.00,79.69360
339.50,79.99725
340.00,80.16052
340.50,80.20325
341.00,80.26276
341.50,80.65033
342.00,80.81665
342.50,81.02264
343.00,81.12488
343.50,81.28357
344.00,81.33392
344.50,81.65283
345.00,81.47125
345.50,81.66656
346.00,81.76575
346.50,81.79169
347.00,82.26013
347.50,82.26776
348.00,82.37915
348.50,82.47528
349.00,82.57446
349.50,82.42340
350.00,82.39899
350.50,82.51190
351.00,82.62329
351.50,82.45239
352.00,82.52869
352.50,82.46765
353.00,82.49664
353.50,82.61414
354.00,82.59125
354.50,82.46613
355.00,82.69196
355.50,82.72552
356.00,82.58057
356.50,82.56836
357.00,82.83386
357.50,82.52106
358.00,82.56531
358.50,82.45697
359.00,82.63092
359.50,82.59277
360.00,82.39441
360.50,82.37457
361.00,82.30743
361.50,82.23877
362.00,82.07855
362.50,82.07550
363.00,82.13806
363.50,82.03735
364.00,81.91376
364.50,82.14417
365.00,82.00836
365.50,81.89087
366.00,81.75354
366.50,81.66504
367.00,81.68182
367.50,81.65894
368.00,81.66809
368.50,81.48041
369.00,81.69708
369.50,81.53687
370.00,81.52008
370.50,81.33087
371.00,81.44836
371.50,81.25153
372.00,81.24542
372.50,81.23627
373.00,81.10504
373.50,81.07300
374.00,81.18896
374.50,81.05774
375.00,81.16608
375.50,80.91125
376.00,81.08521
376.50,80.97992
377.00,80.81207
377.50,80.80139
378.00,80.75714
378.50,80.85632
379.00,80.76935
379.50,80.74188
380.00,80.56030
380.50,80.53436
381.00,80.56946
381.50,80.58472
382.00,80.54199
382.50,80.49469
383.00,80.51147
383.50,80.48401
384.00,80.57861
384.50,80.47638
385.00,80.46417
385.50,80.34058
386.00,80.29022
386.50,80.41077
387.00,80.49622
387.50,80.40924
388.00,80.48706
388.50,80.21393
389.00,80.27954
389.50,80.27954
390.00,80.40161
390.50,80.36041
391.00,80.41840
391.50,80.25055
392.00,80.30853
392.50,80.29327
393.00,80.46570
393.50,80.38483
394.00,80.56488
394.50,80.30243
395.00,80.53284
395.50,80.61066
396.00,80.65033
396.50,80.65948
397.00,80.69000
397.50,80.71594
398.00,80.67017
398.50,80.81055
399.00,80.67474
399.50,80.86548
400.00,80.79681
400.50,80.73730
401.00,80.77393
401.50,80.92346
402.00,80.86243
402.50,80.96771
403.00,81.12183
403.50,81.24847
404.00,81.17371
404.50,81.08063
405.00,81.27594
405.50,81.29425
406.00,81.53839
406.50,81.59027
407.00,81.63605
407.50,81.62842
408.00,81.75201
408.50,81.78711
409.00,81.71844
409.50,81.80847
410.00,81.83746
410.50,81.92902
411.00,82.02820
411.50,81.93359
412.00,82.17316
412.50,82.22198
413.00,82.33490
413.50,82.43713
414.00,82.35626
414.50,82.56683
415.00,82.61261
415.50,82.60498
416.00,82.77435
416.50,82.79877
417.00,82.87659
417.50,83.05511
418.00,83.12683
418.50,83.28400
419.00,83.35419
419.50,83.38776
420.00,83.50372
420.50,83.48999
421.00,83.56171
421.50,83.61511
422.00,83.70209
422.50,83.77228
423.00,83.90961
423.50,83.97827
424.00,84.15985
424.50,84.27277
425.00,84.33228
425.50,84.38721
426.00,84.49402
426.50,84.62372
427.00,84.70612
427.50,84.85870
428.00,84.87701
428.50,85.02808
429.00,85.16235
429.50,85.21423
430.00,85.27527
430.50,85.39734
431.00,85.42633
431.50,85.45532
432.00,85.56061
432.50,85.65979
433.00,85.92529
433.50,86.00769
434.00,86.06720
434.50,86.22284
435.00,86.23505
435.50,86.37695
436.00,86.45172
436.50,86.53717
437.00,86.71722
437.50,86.74622
438.00,86.81030
438.50,86.88507
439.00,86.99188
439.50,87.06512
440.00,87.18262
440.50,87.30927
441.00,87.34741
441.50,87.47406
442.00,87.47406
442.50,87.60834
443.00,87.66479
443.50,87.77008
444.00,87.89063
444.50,88.03253
445.00,88.02643
445.50,88.15155
446.00,88.16528
446.50,88.22479
447.00,88.30872
447.50,88.43384
448.00,88.47351
448.50,88.53912
449.00,88.66882
449.50,88.67035
450.00,88.86719
450.50,88.85803
451.00,88.96790
451.50,89.04266
452.00,89.02130
452.50,89.16931
453.00,89.24561
453.50,89.32648
454.00,89.43176
454.50,89.31580
455.00,89.52026
455.50,89.63165
456.00,89.75830
456.50,89.75372
457.00,89.75525
457.50,89.85443
458.00,89.94446
458.50,89.90326
459.00,90.01923
459.50,90.08484
460.00,90.12604
460.50,90.21149
461.00,90.24353
461.50,90.35492
462.00,90.42664
462.50,90.42053
463.00,90.41290
463.50,90.59601
464.00,90.71503
464.50,90.74554
465.00,90.65247
465.50,90.64026
466.00,90.79895
466.50,90.87982
467.00,90.89508
467.50,91.04462
468.00,91.03088
468.50,91.07361
469.00,91.09955
469.50,91.18958
470.00,91.18042
470.50,91.31775
471.00,91.29486
471.50,91.32843
472.00,91.38641
472.50,91.44135
473.00,91.45966
473.50,91.45966
474.00,91.43372
474.50,91.44135
475.00,91.44440
475.50,91.60461
476.00,91.64734
476.50,91.50085
477.00,91.51306
477.50,91.65192
478.00,91.70685
478.50,91.70837
479.00,91.73279
479.50,91.67938
480.00,91.70685
480.50,91.72821
481.00,91.75720
481.50,91.77094
482.00,91.70380
482.50,91.77856
483.00,91.78314
483.50,91.84875
484.00,91.87469
484.50,91.90063
485.00,91.91437
485.50,91.85181
486.00,91.80145
486.50,91.77856
487.00,91.88538
487.50,91.81213
488.00,91.85638
488.50,91.86554
489.00,91.81213
489.50,91.90063
490.00,91.84723
490.50,91.69922
491.00,91.77399
491.50,91.72974
492.00,91.73737
492.50,91.74042
493.00,91.72668
493.50,91.74805
494.00,91.61682
494.50,91.76636
495.00,91.67633
495.50,91.73126
496.00,91.65649
496.50,91.65802
497.00,91.51154
497.50,91.55121
498.00,91.53442
498.50,91.45508
499.00,91.47491
499.50,91.45355
500.00,91.42303
500.50,91.43829
501.00,91.43066
501.50,91.31470
502.00,91.28265
502.50,91.33453
503.00,91.24146
503.50,91.28265
504.00,91.16364
504.50,91.12701
505.00,91.16211
505.50,91.18958
506.00,91.00494
506.50,91.14075
507.00,91.13007
507.50,91.09497
508.00,90.93781
508.50,90.87830
509.00,90.84625
509.50,90.77301
510.00,90.82489
510.50,90.87219
511.00,90.80048
511.50,90.77454
512.00,90.71960
512.50,90.65247
513.00,90.58228
513.50,90.64026
514.00,90.53497
514.50,90.46326
515.00,90.40985
515.50,90.39612
516.00,90.39612
516.50,90.18097
517.00,90.25726
517.50,90.21606
518.00,90.17944
518.50,90.12451
519.00,90.13824
519.50,90.07568
520.00,90.10620
520.50,90.03754
521.00,90.03601
521.50,89.90784
522.00,89.84222
522.50,89.88037
523.00,89.77356
523.50,89.77661
524.00,89.64386
524.50,89.71558
525.00,89.63928
525.50,89.53705
526.00,89.42719
526.50,89.53400
527.00,89.32343
527.50,89.35852
528.00,89.36920
528.50,89.25934
529.00,89.18304
529.50,89.19525
530.00,89.03351
530.50,88.96484
531.00,89.08844
531.50,88.96942
532.00,88.92822
532.50,88.80005
533.00,88.73291
533.50,88.71918
534.00,88.66882
534.50,88.70850
535.00,88.58948
535.50,88.56354
536.00,88.57117
536.50,88.47809
537.00,88.34076
537.50,88.19885
538.00,88.22937
538.50,88.26599
539.00,88.10425
539.50,88.13324
540.00,88.04169
540.50,88.02032
541.00,87.94098
541.50,87.91809
542.00,87.84943
542.50,87.79755
543.00,87.73804
543.50,87.68311
544.00,87.62360
544.50,87.55188
545.00,87.59308
545.50,87.45728
546.00,87.33673
546.50,87.28485
547.00,87.29706
547.50,87.24976
548.00,87.25281
548.50,87.17194
549.00,87.15668
549.50,87.03308
550.00,86.95374
550.50,87.06055
551.00,86.97662
551.50,86.91711
552.00,86.79352
552.50,86.83777
553.00,86.66687
553.50,86.65161
554.00,86.54480
554.50,86.56311
555.00,86.57227
555.50,86.54022
556.00,86.42120
556.50,86.33423
557.00,86.25946
557.50,86.19537
558.00,86.14349
558.50,86.15570
559.00,86.19843
559.50,86.08551
560.00,86.02905
560.50,85.99091
561.00,85.91766
561.50,85.93597
562.00,85.83069
562.50,85.86426
563.00,85.75592
563.50,85.69183
564.00,85.70099
564.50,85.62927
565.00,85.59875
565.50,85.57129
566.00,85.55908
566.50,85.48584
567.00,85.52856
567.50,85.41260
568.00,85.45685
568.50,85.43549
569.00,85.35004
569.50,85.25238
570.00,85.24323
570.50,85.20966
571.00,85.11658
571.50,85.07538
572.00,85.13336
572.50,84.95178
573.00,84.91974
573.50,84.91669
574.00,84.82056
574.50,84.79309
575.00,84.78699
575.50,84.72290
576.00,84.69238
576.50,84.70154
577.00,84.67407
577.50,84.74121
578.00,84.62677
578.50,84.51233
579.00,84.46198
579.50,84.41010
580.00,84.43451
580.50,84.29413
581.00,84.35516
581.50,84.23004
582.00,84.33075
582.50,84.27277
583.00,84.21173
583.50,84.16748
584.00,84.19647
584.50,84.13849
585.00,84.07288
585.50,84.04083
586.00,84.16901
586.50,84.04846
587.00,84.07288
587.50,84.10339
588.00,84.04846
588.50,84.00574
589.00,83.94775
589.50,83.84247
590.00,83.80432
590.50,83.78296
591.00,83.74023
591.50,83.65479
592.00,83.76007
592.50,83.65936
593.00,83.71887
593.50,83.70819
594.00,83.67615
594.50,83.59375
595.00,83.60901
595.50,83.56018
596.00,83.54950
596.50,83.57086
597.00,83.48846
597.50,83.43201
598.00,83.41370
598.50,83.36639
599.00,83.41217
599.50,83.35419
600.00,83.38623
600.50,83.31604
601.00,83.25958
601.50,83.15430
602.00,83.22144
602.50,83.20618
603.00,83.20160
603.50,83.21686
604.00,83.14514
604.50,83.14972
605.00,83.12836
605.50,83.11310
606.00,83.13751
606.50,83.04749
607.00,83.07495
607.50,83.01392
608.00,83.08258
608.50,83.03375
609.00,82.99408
609.50,83.01697
610.00,82.95746
610.50,82.90710
611.00,82.85065
611.50,82.93304
612.00,82.95288
612.50,82.83844
613.00,82.94220
613.50,82.84149
614.00,82.85828
614.50,82.79419
615.00,82.78351
615.50,82.81708
616.00,82.78809
616.50,82.73926
617.00,82.72858
617.50,82.73010
618.00,82.66296
618.50,82.72858
619.00,82.70416
619.50,82.75909
620.00,82.69653
620.50,82.73468
621.00,82.74384
621.50,82.64465
622.00,82.74689
622.50,82.73621
623.00,82.76978
623.50,82.65686
624.00,82.62787
624.50,82.56683
625.00,82.48444
625.50,82.64771
626.00,82.57751
626.50,82.54547
627.00,82.56989
627.50,82.53021
628.00,82.54395
628.50,82.55005
629.00,82.64923
629.50,82.62482
630.00,82.65076
630.50,82.50275
631.00,82.50122
631.50,82.56531
632.00,82.48749
632.50,82.54700
633.00,82.50580
633.50,82.55310
634.00,82.57141
634.50,82.56073
635.00,82.48291
635.50,82.54089
636.00,82.53174
636.50,82.52411
637.00,82.55157
637.50,82.56226
638.00,82.52716
638.50,82.55310
639.00,82.53937
639.50,82.52258
640.00,82.60498
640.50,82.61719
641.00,82.55920
641.50,82.54547
642.00,82.55310
642.50,82.55157
643.00,82.49817
643.50,82.47375
644.00,82.48596
644.50,82.57751
645.00,82.52563
645.50,82.59430
646.00,82.57904
646.50,82.61261
647.00,82.56378
647.50,82.50275
648.00,82.62482
648.50,82.56836
649.00,82.54395
649.50,82.53937
650.00,82.61108
650.50,82.64160
651.00,82.66602
651.50,82.65381
652.00,82.63092
652.50,82.61414
653.00,82.69958
653.50,82.68280
654.00,82.69806
654.50,82.69043
655.00,82.80487
655.50,82.72247
656.00,82.71790
656.50,82.72552
657.00,82.76062
657.50,82.80487
658.00,82.73926
658.50,82.70721
659.00,82.77435
659.50,82.75452
660.00,82.72858
660.50,82.63092
661.00,82.69501
661.50,82.70264
662.00,82.85980
662.50,82.78198
663.00,82.87811
663.50,82.83539
664.00,82.86743
664.50,82.90863
665.00,82.78351
665.50,82.85828
666.00,82.93304
666.50,82.96051
667.00,82.94220
667.50,82.91321
668.00,82.88116
668.50,82.86743
669.00,82.83997
669.50,82.89185
670.00,82.94525
670.50,82.98492
671.00,83.00934
671.50,83.04291
672.00,83.06580
672.50,83.02765
673.00,83.11920
673.50,83.10394
674.00,83.08563
674.50,83.04749
675.00,83.02002
675.50,83.05359
676.00,83.03986
676.50,83.11768
677.00,83.18024
677.50,83.16498
678.00,83.24585
678.50,83.29773
679.00,83.25348
679.50,83.25043
680.00,83.30688
680.50,83.36029
681.00,83.34808
681.50,83.34656
682.00,83.37250
682.50,83.41370
683.00,83.42133
683.50,83.42285
684.00,83.45032
684.50,83.39539
685.00,83.50677
685.50,83.39539
686.00,83.55255
686.50,83.63190
687.00,83.53882
687.50,83.58002
688.00,83.54187
688.50,83.53882
689.00,83.60443
689.50,83.50983
690.00,83.51135
690.50,83.58002
691.00,83.64410
691.50,83.64716
692.00,83.68225
692.50,83.64258
693.00,83.61969
693.50,83.69446
694.00,83.65631
694.50,83.71429
695.00,83.75549
695.50,83.84399
696.00,83.79517
696.50,83.86841
697.00,83.87756
697.50,83.84705
698.00,83.95538
698.50,83.95386
699.00,84.00574
699.50,84.00116
700.00,84.07135
700.50,84.11255
701.00,84.08966
701.50,84.07135
702.00,84.02405
702.50,84.06067
703.00,84.16595
703.50,84.12781
704.00,84.18884
704.50,84.26056
705.00,84.25446
705.50,84.27887
706.00,84.19647
706.50,84.26666
707.00,84.31702
707.50,84.28802
708.00,84.32159
708.50,84.37958
709.00,84.41925
709.50,84.45282
710.00,84.49554
710.50,84.48181
711.00,84.45892
711.50,84.48944
712.00,84.65271
712.50,84.61151
713.00,84.61456
713.50,84.60999
714.00,84.67865
714.50,84.58862
715.00,84.68170
715.50,84.68323
716.00,84.71985
716.50,84.64355
717.00,84.79767
717.50,84.82361
718.00,84.80988
718.50,84.86176
719.00,84.87701
719.50,84.82819
720.00,84.94263
720.50,84.90601
721.00,84.94110
721.50,84.90906
722.00,84.98383
722.50,84.97009
723.00,85.00824
723.50,85.05096
724.00,85.04944
724.50,85.15778
725.00,85.00824
725.50,85.05554
726.00,85.08606
726.50,85.21118
727.00,85.25238
727.50,85.26611
728.00,85.22186
728.50,85.27527
729.00,85.34851
729.50,85.25543
730.00,85.34698
730.50,85.32715
731.00,85.29816
731.50,85.41260
732.00,85.50873
732.50,85.51331
733.00,85.51178
733.50,85.61249
734.00,85.54688
734.50,85.59570
735.00,85.67352
735.50,85.62622
736.00,85.61554
736.50,85.78949
737.00,85.71625
737.50,85.75439
738.00,85.80017
738.50,85.83679
739.00,85.67047
739.50,85.76508
740.00,85.91919
740.50,85.88867
741.00,85.99701
741.50,85.99701
742.00,85.93903
742.50,85.95581
743.00,85.95734
743.50,86.01685
744.00,86.10382
744.50,85.99243
745.00,86.10840
745.50,86.06110
746.00,85.98022
746.50,86.19232
747.00,86.22894
747.50,86.25488
748.00,86.21368
748.50,86.27014
749.00,86.28235
749.50,86.38153
750.00,86.41357
750.50,86.50818
751.00,86.46851
751.50,86.44562
752.00,86.43494
752.50,86.49139
753.00,86.49292
753.50,86.54480
754.00,86.63940
754.50,86.69739
755.00,86.59821
755.50,86.69739
756.00,86.78284
756.50,86.78284
757.00,86.72638
757.50,86.74316
758.00,86.77368
758.50,86.74622
759.00,86.75537
759.50,86.84845
760.00,86.82861
760.50,86.76758
761.00,86.78741
761.50,86.94305
762.00,86.97662
762.50,86.93085
763.00,86.97510
763.50,86.93848
764.00,87.01172
764.50,87.08038
765.00,87.07275
765.50,87.10175
766.00,87.17194
766.50,87.13684
767.00,87.12769
767.50,87.25891
768.00,87.32758
768.50,87.28180
769.00,87.26349
769.50,87.27570
770.00,87.22839
770.50,87.33215
771.00,87.32452
771.50,87.40692
772.00,87.58698
772.50,87.47864
773.00,87.44202
773.50,87.65869
774.00,87.51678
774.50,87.61139
775.00,87.62970
775.50,87.76703
776.00,87.82043
776.50,87.79907
777.00,87.92877
777.50,87.91199
778.00,87.83417
778.50,87.84943
779.00,87.88147
779.50,87.73193
780.00,87.79297
780.50,87.85858
781.00,87.79602
781.50,87.98981
782.00,87.85248
782.50,87.94708
783.00,87.98828
783.50,87.92572
784.00,87.89063
784.50,88.04779
785.00,88.15308
785.50,88.14240
786.00,88.12714
786.50,88.22479
787.00,88.18054
787.50,88.21716
788.00,88.14392
788.50,88.25684
789.00,88.21716
789.50,88.31787
790.00,88.34076
790.50,88.21564
791.00,88.32092
791.50,88.41095
792.00,88.27057
792.50,88.24463
793.00,88.45825
793.50,88.40485
794.00,88.42621
794.50,88.53455
795.00,88.51624
795.50,88.54828
796.00,88.67798
796.50,88.48572
797.00,88.67950
797.50,88.68103
798.00,88.67798
798.50,88.60931
799.00,88.73749
799.50,88.66730
800.00,88.66577
800.50,88.74359
801.00,88.72833
801.50,88.77258
802.00,88.90076
802.50,89.06555
803.00,89.04877
803.50,88.99078
804.00,89.00146
804.50,89.00146
805.00,89.04266
805.50,88.89160
806.00,89.14032
806.50,89.03503
807.00,89.08386
807.50,89.19220
808.00,89.01520
808.50,89.10675
809.00,89.08997
809.50,89.16321
810.00,89.02588
810.50,89.12048
811.00,89.15100
811.50,89.12964
812.00,89.24103
812.50,89.34326
813.00,89.45007
813.50,89.33716
814.00,89.25934
814.50,89.19830
815.00,89.30054
815.50,89.52332
816.00,89.52484
816.50,89.40125
817.00,89.53094
817.50,89.39056
818.00,89.47601
818.50,89.59198
819.00,89.61334
819.50,89.51263
820.00,89.61487
820.50,89.52332
821.00,89.58130
821.50,89.53400
822.00,89.71863
822.50,89.80713
823.00,89.68506
823.50,89.67896
824.00,89.81018
824.50,89.78882
825.00,89.67896
825.50,89.78577
826.00,89.88190
826.50,89.80560
827.00,89.90173
827.50,89.91699
828.00,90.04822
828.50,89.92157
829.00,90.07721
829.50,90.13977
830.00,90.11688
830.50,90.10468
831.00,90.10620
831.50,90.08484
832.00,90.11230
832.50,90.04517
833.00,90.09094
833.50,90.07263
834.00,89.97498
834.50,90.20081
835.00,90.09094
835.50,90.16418
836.00,90.14740
836.50,90.07721
837.00,90.03448
837.50,90.07568
838.00,90.32135
838.50,90.21301
839.00,90.37170
839.50,90.15350
840.00,90.42053
840.50,90.33813
841.00,90.39917
841.50,90.30609
842.00,90.35797
842.50,90.47394
843.00,90.47852
843.50,90.38086
844.00,90.39154
844.50,90.28320
845.00,90.34729
845.50,90.41595
846.00,90.50598
846.50,90.58075
847.00,90.37933
847.50,90.46478
848.00,90.68756
848.50,90.52429
849.00,90.67993
849.50,90.78827
850.00,90.88593
850.50,90.72571
851.00,90.89355
851.50,90.84015
852.00,90.75928
852.50,90.76996
853.00,90.76996
853.50,90.98663
854.00,90.78979
854.50,90.68756
855.00,90.65247
855.50,90.52582
856.00,90.61584
856.50,90.64636
857.00,90.93018
857.50,90.69977
858.00,90.80353
858.50,90.63568
859.00,90.84167
859.50,90.71960
860.00,90.71960
860.50,90.76385
861.00,90.96985
861.50,90.81573
862.00,90.91187
862.50,91.05835
863.00,91.13770
863.50,90.68756
864.00,90.91797
864.50,91.03241
865.00,91.12701
865.50,91.03546
866.00,90.85541
866.50,90.96069
867.00,91.18042
867.50,91.01715
868.00,91.14380
868.50,91.08124
869.00,90.98816
869.50,91.11633
870.00,91.15753
870.50,90.75470
871.00,91.04919
871.50,91.10870
872.00,90.87982
872.50,90.89508
873.00,91.14838
873.50,91.29028
874.00,91.09497
874.50,91.47034
875.00,91.24451
875.50,91.05835
876.00,91.42151
876.50,91.25671
877.00,90.87982
877.50,90.62042
878.00,91.12549
878.50,91.09650
879.00,91.56342
879.50,91.15143
880.00,91.46423
880.50,91.70532
881.00,91.25061
881.50,91.60919
882.00,91.66718
882.50,91.67328
883.00,91.27655
883.50,91.00342
884.00,90.96375
884.50,91.21857
885.00,91.64581
885.50,91.83502
886.00,91.88995
886.50,92.20276
887.00,91.96930
887.50,92.12341
888.00,91.52527
888.50,91.21704
889.00,91.69617
889.50,91.60767
890.00,91.76941
890.50,91.21857
891.00,91.76788
891.50,92.08069
892.00,91.35742
892.50,91.88080
893.00,91.12549
893.50,91.46118
894.00,91.88538
894.50,91.49475
895.00,91.57257
895.50,91.32385
896.00,91.48407
896.50,91.77094
897.00,91.56189
897.50,92.55981
898.00,91.90216
898.50,93.05115
899.00,91.93573
899.50,91.46118
900.00,91.73737
900.50,91.98151
901.00,90.97900
901.50,90.84930
902.00,90.69824
902.50,91.82434
903.00,92.03339
903.50,91.48254
904.00,91.75720
904.50,92.31110
905.00,91.28265
905.50,91.14075
906.00,90.79437
906.50,90.83099
907.00,91.73737
907.50,92.68036
908.00,92.12799
908.50,93.00385
909.00,92.96570
909.50,91.69464
910.00,90.67383
910.50,91.67786
911.00,91.19720
911.50,92.05170
912.00,92.53693
912.50,92.27905
913.00,91.32080
913.50,91.83960
914.00,92.23785
914.50,91.46576
915.00,92.26532
915.50,90.24963
916.00,90.97443
916.50,91.14075
917.00,91.82587
917.50,91.56189
918.00,94.61517
918.50,93.89343
919.00,92.42401
919.50,91.62140
920.00,90.00549
920.50,90.83252
921.00,91.23077
921.50,91.92200
922.00,90.42053
922.50,90.00854
923.00,90.30457
923.50,90.09857
924.00,90.17181
924.50,92.65442
925.00,91.94489
925.50,89.24561
926.00,92.64221
926.50,88.21106
927.00,89.02435
927.50,90.01160
928.00,92.64679
928.50,92.20276
929.00,92.67731
929.50,93.04199
930.00,90.56854
930.50,93.96820
931.00,92.26990
931.50,89.00757
932.00,90.41138
932.50,89.39056
933.00,89.31427
933.50,90.86456
934.00,90.84930
934.50,91.67786
935.00,91.47644
935.50,90.41748
936.00,90.39307
936.50,93.85834
937.00,89.55536
937.50,91.99524
938.00,88.25378
938.50,89.80408
939.00,91.57867
939.50,95.32471
940.00,90.96680
940.50,92.08221
941.00,92.35229
941.50,92.24548
942.00,91.43524
942.50,91.42761
943.00,90.56396
943.50,94.58008
944.00,94.76929
944.50,92.20123
945.00,91.51001
945.50,89.16626
946.00,88.05237
946.50,88.84888
947.00,93.03894
947.50,90.64026
948.00,90.36560
948.50,88.67798
949.00,85.68268
949.50,88.48572
950.00,92.59949
