"Storage 122532 PM - RawData - C:\Users\Kyung\Sep072011\File 110907 122532 PM.spc"
"Wavelength nm.","T%"
250.00,2.01874
250.50,2.16064
251.00,2.28577
251.50,2.44751
252.00,2.64587
252.50,2.80151
253.00,2.89612
253.50,3.04565
254.00,3.21350
254.50,3.42865
255.00,3.54156
255.50,3.66821
256.00,3.82080
256.50,4.02679
257.00,4.15192
257.50,4.33502
258.00,4.54865
258.50,4.61731
259.00,4.83704
259.50,5.01099
260.00,5.22614
260.50,5.34515
261.00,5.41534
261.50,5.66101
262.00,5.85327
262.50,5.95398
263.00,6.04401
263.50,6.25000
264.00,6.42395
264.50,6.54297
265.00,6.73828
265.50,6.92902
266.00,7.10144
266.50,7.23724
267.00,7.42950
267.50,7.61871
268.00,7.71484
268.50,7.91931
269.00,8.25043
269.50,8.43506
270.00,8.50677
270.50,8.75854
271.00,9.02557
271.50,9.17969
272.00,9.32007
272.50,9.60388
273.00,9.85718
273.50,10.10437
274.00,10.41718
274.50,10.61401
275.00,10.88104
275.50,11.16638
276.00,11.48682
276.50,11.84998
277.00,12.10938
277.50,12.52747
278.00,12.74261
278.50,13.16223
279.00,13.56812
279.50,13.99231
280.00,14.25781
280.50,14.73389
281.00,15.08484
281.50,15.71503
282.00,16.23535
282.50,16.69769
283.00,17.07458
283.50,17.64374
284.00,18.04657
284.50,18.67523
285.00,19.25507
285.50,19.56940
286.00,20.28656
286.50,20.72906
287.00,21.47675
287.50,21.96198
288.00,22.76611
288.50,23.22388
289.00,23.75793
289.50,24.37134
290.00,25.09308
290.50,25.51880
291.00,26.22223
291.50,26.88141
292.00,27.52686
292.50,28.19977
293.00,28.80707
293.50,29.58984
294.00,30.24445
294.50,31.03943
295.00,31.49414
295.50,32.19910
296.00,32.95441
296.50,33.33740
297.00,34.12933
297.50,34.56421
298.00,35.54230
298.50,36.00769
299.00,36.79504
299.50,37.17499
300.00,38.07678
300.50,38.42468
301.00,38.74359
301.50,39.79187
302.00,39.87732
302.50,40.55023
303.00,41.30096
303.50,41.35590
304.00,42.17224
304.50,42.74292
305.00,43.23730
305.50,43.81256
306.00,44.22455
306.50,44.64417
307.00,45.30945
307.50,45.33539
308.00,45.71991
308.50,46.49048
309.00,46.80939
309.50,47.08405
310.00,47.64862
310.50,47.97058
311.00,48.48328
311.50,48.50769
312.00,49.23401
312.50,49.83368
313.00,50.42419
313.50,50.84839
314.00,50.68665
314.50,50.95673
315.00,51.47552
315.50,51.38092
316.00,51.74408
316.50,51.62964
317.00,52.29034
317.50,52.68097
318.00,53.13416
318.50,53.37524
319.00,53.88489
319.50,54.01459
320.00,54.30450
320.50,54.29230
321.00,54.89044
321.50,54.92554
322.00,55.07660
322.50,55.62744
323.00,55.86395
323.50,56.15387
324.00,56.72455
324.50,56.55823
325.00,57.28455
325.50,57.17163
326.00,57.50732
326.50,57.48901
327.00,58.03223
327.50,58.00934
328.00,58.47015
328.50,58.29468
329.00,59.34448
329.50,59.40094
330.00,59.47113
330.50,59.62830
331.00,60.66284
331.50,60.39734
332.00,61.48834
332.50,61.10992
333.00,60.63080
333.50,61.17401
334.00,61.77216
334.50,62.03918
335.00,62.35199
335.50,62.62360
336.00,63.29346
336.50,63.39417
337.00,63.07831
337.50,63.66272
338.00,64.19220
338.50,64.62097
339.00,64.91394
339.50,64.57672
340.00,64.49280
340.50,65.49072
341.00,66.05835
341.50,66.01105
342.00,66.66260
342.50,66.94946
343.00,66.76331
343.50,67.51404
344.00,68.02216
344.50,67.95807
345.00,68.70575
345.50,68.93158
346.00,69.40765
346.50,69.49615
347.00,69.73114
347.50,70.05157
348.00,70.23010
348.50,70.99762
349.00,71.45844
349.50,71.73309
350.00,72.00623
350.50,72.82257
351.00,72.49146
351.50,73.68317
352.00,73.25897
352.50,74.04327
353.00,74.44153
353.50,75.02899
354.00,74.86572
354.50,75.39825
355.00,75.67291
355.50,76.48163
356.00,76.49078
356.50,77.10419
357.00,76.86310
357.50,77.77710
358.00,77.83661
358.50,78.64380
359.00,79.01611
359.50,79.44794
360.00,79.45099
360.50,80.11475
361.00,79.99268
361.50,80.58472
362.00,80.78613
362.50,81.53076
363.00,81.92902
363.50,82.11975
364.00,82.43561
364.50,83.40149
365.00,82.99561
365.50,83.92181
366.00,83.36487
366.50,83.38470
367.00,84.05914
367.50,84.53064
368.00,84.63898
368.50,85.43396
369.00,85.33325
369.50,85.36682
370.00,85.83069
370.50,85.95886
371.00,86.22131
371.50,86.36322
372.00,86.61804
372.50,86.75232
373.00,86.97357
373.50,87.24213
374.00,87.75635
374.50,87.56714
375.00,87.47101
375.50,88.28735
376.00,88.36212
376.50,88.30872
377.00,88.61694
377.50,88.70392
378.00,88.18970
378.50,88.98926
379.00,89.22424
379.50,88.91754
380.00,89.14490
380.50,89.52484
381.00,89.47906
381.50,89.20135
382.00,89.47754
382.50,89.35089
383.00,89.55688
383.50,89.40277
384.00,89.43634
384.50,89.65912
385.00,89.53552
385.50,90.00702
386.00,89.77051
386.50,89.73389
387.00,89.46533
387.50,89.67590
388.00,89.70490
388.50,89.57062
389.00,89.73541
389.50,89.56909
390.00,89.29291
390.50,89.35852
391.00,89.39209
391.50,89.21661
392.00,89.35852
392.50,89.14490
393.00,88.88092
393.50,89.24255
394.00,89.06708
394.50,88.86566
395.00,88.83362
395.50,88.80310
396.00,88.63220
396.50,88.23700
397.00,88.29041
397.50,88.22327
398.00,87.88300
398.50,87.75330
399.00,87.72583
399.50,87.49695
400.00,87.48016
400.50,87.13531
401.00,87.06512
401.50,86.93848
402.00,87.04376
402.50,86.94763
403.00,87.04529
403.50,86.55243
404.00,85.87494
404.50,86.02753
405.00,85.89325
405.50,85.63995
406.00,85.48126
406.50,85.40649
407.00,85.25848
407.50,85.23102
408.00,85.01587
408.50,85.08453
409.00,84.62219
409.50,84.68628
410.00,84.38110
410.50,84.32159
411.00,83.87146
411.50,83.99658
412.00,83.58917
412.50,83.43506
413.00,83.67157
413.50,83.10699
414.00,83.39386
414.50,82.74078
415.00,82.44781
415.50,82.68127
416.00,82.14417
416.50,82.27539
417.00,82.07092
417.50,82.08008
418.00,81.59180
418.50,81.62842
419.00,81.71844
419.50,81.61469
420.00,81.34460
420.50,80.95703
421.00,81.23322
421.50,80.92499
422.00,80.76630
422.50,80.74188
423.00,80.34363
423.50,80.68085
424.00,80.52521
424.50,80.43213
425.00,80.26733
425.50,79.81567
426.00,80.15137
426.50,79.60358
427.00,79.82635
427.50,79.45404
428.00,79.42200
428.50,79.29382
429.00,79.30450
429.50,79.18549
430.00,79.15649
430.50,79.03290
431.00,78.64075
431.50,79.06036
432.00,78.56750
432.50,78.65753
433.00,78.51563
433.50,78.14789
434.00,77.94800
434.50,78.23181
435.00,78.07922
435.50,78.14941
436.00,77.58026
436.50,77.82593
437.00,77.80304
437.50,77.62756
438.00,77.74811
438.50,77.56958
439.00,77.63519
439.50,77.44141
440.00,77.70386
440.50,77.47040
441.00,77.43530
441.50,77.30255
442.00,77.29492
442.50,77.03400
443.00,77.44598
443.50,77.23541
444.00,77.20947
444.50,77.29645
445.00,76.89667
445.50,77.05994
446.00,77.10114
446.50,77.14844
447.00,77.18353
447.50,77.06757
448.00,77.32239
448.50,77.19574
449.00,77.05688
449.50,77.01416
450.00,77.34680
450.50,76.82343
451.00,77.21405
451.50,77.18811
452.00,76.91956
452.50,77.05688
453.00,77.14844
453.50,77.16370
454.00,77.19727
454.50,77.12250
455.00,77.07214
455.50,77.17743
456.00,77.34833
456.50,77.05688
457.00,77.09351
457.50,77.26440
458.00,77.25067
458.50,77.23541
459.00,77.44904
459.50,77.50397
460.00,77.28729
460.50,77.57416
461.00,77.53906
461.50,77.66266
462.00,77.59705
462.50,77.42767
463.00,77.74811
463.50,77.90833
464.00,77.82135
464.50,77.90833
465.00,77.71454
465.50,78.07465
466.00,78.05328
466.50,78.08075
467.00,78.22571
467.50,78.29285
468.00,78.29132
468.50,78.45764
469.00,78.53241
469.50,78.66974
470.00,78.53699
470.50,78.61633
471.00,78.64990
471.50,78.93982
472.00,78.92609
472.50,79.08173
473.00,79.01917
473.50,79.10767
474.00,79.35181
474.50,79.53033
475.00,79.71802
475.50,79.83856
476.00,79.65851
476.50,79.61426
477.00,79.82788
477.50,79.98657
478.00,79.80042
478.50,80.23224
479.00,80.00336
479.50,80.04303
480.00,80.39856
480.50,80.57556
481.00,80.52826
481.50,80.64880
482.00,80.70068
482.50,80.75562
483.00,81.03485
483.50,81.06079
484.00,81.26221
484.50,81.24237
485.00,81.33545
485.50,81.34613
486.00,81.41022
486.50,81.78253
487.00,81.60248
487.50,81.83746
488.00,81.74744
488.50,82.03278
489.00,81.87408
489.50,82.16858
490.00,82.27081
490.50,82.35016
491.00,82.34711
491.50,82.68890
492.00,82.67822
492.50,82.88269
493.00,82.89642
493.50,82.98340
494.00,83.13599
494.50,83.07648
495.00,83.38165
495.50,83.60901
496.00,83.60901
496.50,83.58154
497.00,83.61969
497.50,84.00574
498.00,83.96454
498.50,84.09424
499.00,84.37653
499.50,84.46045
500.00,84.47418
500.50,84.62982
501.00,84.74579
501.50,85.04791
502.00,84.87244
502.50,85.05402
503.00,85.11047
503.50,85.09979
504.00,85.37445
504.50,85.48126
505.00,85.79254
505.50,85.73761
506.00,85.96039
506.50,85.99548
507.00,86.20148
507.50,86.37390
508.00,86.28235
508.50,86.43646
509.00,86.56769
509.50,86.44867
510.00,86.78436
510.50,86.79352
511.00,87.10785
511.50,86.93390
512.00,86.93085
512.50,87.27570
513.00,87.35199
513.50,87.50000
514.00,87.65564
514.50,87.66785
515.00,87.68616
515.50,87.91962
516.00,87.79602
516.50,88.03253
517.00,87.85858
517.50,88.15765
518.00,88.18054
518.50,88.52386
519.00,88.33923
519.50,88.66119
520.00,88.82599
520.50,88.81989
521.00,88.79395
521.50,88.88550
522.00,89.03503
522.50,89.43176
523.00,88.97400
523.50,89.42719
524.00,89.33563
524.50,89.35242
525.00,89.39819
525.50,89.27155
526.00,89.58740
526.50,89.73846
527.00,89.70642
527.50,89.74762
528.00,89.91241
528.50,90.10468
529.00,90.20996
529.50,90.12299
530.00,90.18860
530.50,90.29694
531.00,90.35339
531.50,90.45258
532.00,90.53192
532.50,90.48462
533.00,90.57770
533.50,90.64636
534.00,90.79895
534.50,90.79285
535.00,90.93781
535.50,90.77911
536.00,90.79132
536.50,91.02173
537.00,91.02173
537.50,91.09039
538.00,91.13464
538.50,91.22467
539.00,91.34674
539.50,91.43677
540.00,91.34369
540.50,91.15753
541.00,91.37573
541.50,91.48102
542.00,91.47034
542.50,91.41693
543.00,91.54663
543.50,91.67175
544.00,91.69922
544.50,91.84265
545.00,91.83655
545.50,91.59088
546.00,92.10510
546.50,91.83350
547.00,91.99829
547.50,91.69312
548.00,92.11273
548.50,91.89148
549.00,92.05017
549.50,91.81213
550.00,91.97998
550.50,91.83350
551.00,92.07306
551.50,92.01813
552.00,92.23175
552.50,91.90369
553.00,92.02576
553.50,91.85028
554.00,92.05017
554.50,92.22717
555.00,92.07916
555.50,92.04254
556.00,91.99829
556.50,92.14783
557.00,91.77551
557.50,92.08069
558.00,92.15088
558.50,92.13715
559.00,92.16614
559.50,92.27142
560.00,92.14172
560.50,92.06848
561.00,91.89911
561.50,91.97235
562.00,91.95099
562.50,92.07916
563.00,92.33246
563.50,92.14020
564.00,92.05933
564.50,92.03796
565.00,91.88843
565.50,91.85638
566.00,92.09442
566.50,92.02118
567.00,91.99677
567.50,91.98608
568.00,91.74805
568.50,91.96930
569.00,91.81213
569.50,91.76941
570.00,91.62445
570.50,91.57562
571.00,91.87927
571.50,91.75720
572.00,91.55579
572.50,91.81824
573.00,91.33301
573.50,91.78619
574.00,91.55273
574.50,91.30249
575.00,91.32080
575.50,91.18958
576.00,91.40015
576.50,91.32385
577.00,91.32996
577.50,91.22620
578.00,91.14380
578.50,90.92865
579.00,91.01715
579.50,90.98206
580.00,91.08887
580.50,90.95154
581.00,90.85999
581.50,90.90729
582.00,90.97595
582.50,90.82794
583.00,90.87524
583.50,90.69977
584.00,90.58380
584.50,90.73792
585.00,90.49225
585.50,90.45868
586.00,90.47546
586.50,90.27710
587.00,90.16876
587.50,90.23743
588.00,90.17334
588.50,90.09857
589.00,90.04974
589.50,90.18860
590.00,90.03448
590.50,89.93073
591.00,89.99634
591.50,89.90479
592.00,89.77051
592.50,89.79492
593.00,89.76898
593.50,89.74915
594.00,89.56604
594.50,89.37378
595.00,89.39819
595.50,89.29596
596.00,89.52332
596.50,89.53400
597.00,89.16168
597.50,89.18457
598.00,89.16473
598.50,89.01062
599.00,88.83820
599.50,88.98163
600.00,88.84277
600.50,89.03961
601.00,88.83514
601.50,88.79089
602.00,88.42316
602.50,88.47046
603.00,88.56201
603.50,88.21564
604.00,88.43536
604.50,88.45520
605.00,88.15460
605.50,88.20190
606.00,88.03864
606.50,88.08899
607.00,87.98828
607.50,87.88605
608.00,87.96387
608.50,87.64648
609.00,87.55493
609.50,87.66174
610.00,87.54730
610.50,87.37183
611.00,87.51984
611.50,87.19635
612.00,87.31384
612.50,87.28943
613.00,87.13531
613.50,86.80420
614.00,86.82556
614.50,86.97052
615.00,86.79047
615.50,86.94305
616.00,86.66382
616.50,86.61346
617.00,86.62720
617.50,86.47461
618.00,86.57532
618.50,86.42578
619.00,86.54633
619.50,86.17554
620.00,85.98938
620.50,86.32965
621.00,86.03821
621.50,85.97107
622.00,85.97107
622.50,85.69794
623.00,85.93445
623.50,85.80933
624.00,85.58807
624.50,85.45532
625.00,85.78949
625.50,85.60333
626.00,85.50568
626.50,85.32715
627.00,85.28290
627.50,85.16846
628.00,85.48279
628.50,85.16541
629.00,85.13336
629.50,85.11963
630.00,84.98993
630.50,84.84497
631.00,84.84955
631.50,84.75647
632.00,84.56726
632.50,84.71832
633.00,84.66797
633.50,84.46350
634.00,84.67255
634.50,84.54895
635.00,84.40857
635.50,84.35974
636.00,84.34906
636.50,84.08203
637.00,84.17969
637.50,84.13391
638.00,83.94623
638.50,83.72040
639.00,83.87909
639.50,83.57849
640.00,83.58307
640.50,83.81958
641.00,83.56781
641.50,83.54034
642.00,83.49457
642.50,83.30078
643.00,83.33130
643.50,83.37250
644.00,83.35571
644.50,83.05969
645.00,83.15277
645.50,83.04291
646.00,82.90253
646.50,83.01239
647.00,82.81555
647.50,82.85065
648.00,82.63550
648.50,82.66296
649.00,82.50275
649.50,82.58209
650.00,82.67365
650.50,82.32880
651.00,82.64923
651.50,82.24792
652.00,82.45087
652.50,82.35474
653.00,82.38525
653.50,82.19299
654.00,82.18231
654.50,82.12891
655.00,82.04193
655.50,81.96564
656.00,81.96259
656.50,81.85425
657.00,82.14417
657.50,81.75507
658.00,81.56891
658.50,81.82373
659.00,81.65741
659.50,81.54297
660.00,81.65283
660.50,81.38885
661.00,81.37207
661.50,81.38428
662.00,81.43921
662.50,81.37360
663.00,81.23169
663.50,81.39343
664.00,81.24237
664.50,81.17523
665.00,81.05927
665.50,81.12183
666.00,81.10352
666.50,81.14319
667.00,80.77393
667.50,80.82886
668.00,81.04553
668.50,80.94025
669.00,80.67322
669.50,80.67017
670.00,80.91278
670.50,80.74341
671.00,80.57098
671.50,80.42908
672.00,80.40161
672.50,80.61829
673.00,80.62439
673.50,80.27496
674.00,80.17883
674.50,80.27496
675.00,80.38635
675.50,80.47485
676.00,80.22003
676.50,80.26581
677.00,80.09949
677.50,80.12085
678.00,79.93774
678.50,79.94843
679.00,79.95758
679.50,79.98199
680.00,79.86298
680.50,79.86603
681.00,79.94690
681.50,80.07355
682.00,79.76990
682.50,79.91486
683.00,79.93011
683.50,79.94232
684.00,79.70581
684.50,79.42810
685.00,79.58832
685.50,79.66919
686.00,79.73938
686.50,79.52728
687.00,79.48608
687.50,79.54865
688.00,79.23279
688.50,79.29535
689.00,79.32587
689.50,79.47845
690.00,79.52271
690.50,79.48151
691.00,79.38690
691.50,79.44946
692.00,79.26483
692.50,79.20685
693.00,79.14276
693.50,79.33044
694.00,79.34418
694.50,79.29688
695.00,79.24500
695.50,78.71857
696.00,79.34265
696.50,79.23279
697.00,78.96881
697.50,79.04663
698.00,78.92761
698.50,78.72009
699.00,79.12903
699.50,78.79791
700.00,78.97339
700.50,79.01917
701.00,78.70331
701.50,78.68958
702.00,78.79181
702.50,78.93829
703.00,78.82233
703.50,78.60870
704.00,78.77655
704.50,78.89709
705.00,78.85590
705.50,78.83911
706.00,78.62396
706.50,78.58429
707.00,78.67432
707.50,78.60870
708.00,78.64227
708.50,78.58276
709.00,78.61938
709.50,78.54919
710.00,78.62091
710.50,78.45154
711.00,78.59955
711.50,78.39661
712.00,78.37677
712.50,78.24097
713.00,78.51868
713.50,78.41492
714.00,78.65143
714.50,78.59802
715.00,78.60718
715.50,78.52936
716.00,78.31726
716.50,78.44391
717.00,78.61481
717.50,78.26691
718.00,78.41492
718.50,78.22266
719.00,78.61023
719.50,78.23181
720.00,78.31879
720.50,78.36304
721.00,78.35846
721.50,78.43170
722.00,78.27606
722.50,78.36456
723.00,78.58429
723.50,78.29895
724.00,78.34625
724.50,78.56140
725.00,78.51715
725.50,78.23334
726.00,78.27606
726.50,78.15399
727.00,78.40424
727.50,78.54462
728.00,78.34473
728.50,78.10974
729.00,78.16925
729.50,78.23334
730.00,78.21350
730.50,78.06549
731.00,78.13568
731.50,78.19519
732.00,78.35693
732.50,78.32642
733.00,78.32031
733.50,77.97699
734.00,78.51257
734.50,78.30505
735.00,78.30963
735.50,78.24554
736.00,78.03497
736.50,78.36151
737.00,78.22418
737.50,78.21350
738.00,78.28522
738.50,78.53699
739.00,78.34015
739.50,78.52173
740.00,78.27301
740.50,78.48053
741.00,78.47443
741.50,78.25928
742.00,78.31726
742.50,78.40118
743.00,78.36304
743.50,78.29895
744.00,78.11584
744.50,78.36151
745.00,78.15704
745.50,78.25012
746.00,78.55072
746.50,78.54767
747.00,78.25317
747.50,78.41492
748.00,78.46985
748.50,78.65448
749.00,78.27759
749.50,78.45764
750.00,78.37372
750.50,78.38745
751.00,78.49731
751.50,78.28827
752.00,78.59192
752.50,78.48358
753.00,78.37677
753.50,78.44849
754.00,78.54004
754.50,78.49121
755.00,78.45154
755.50,78.55072
756.00,78.51563
756.50,78.45764
757.00,78.42102
757.50,78.66211
758.00,78.50189
758.50,78.33405
759.00,78.48969
759.50,78.68958
760.00,78.54156
760.50,78.40271
761.00,78.55072
761.50,79.10004
762.00,78.57971
762.50,78.58582
763.00,78.77502
763.50,78.45764
764.00,78.80859
764.50,78.67126
765.00,78.63007
765.50,78.75977
766.00,78.79791
766.50,78.88336
767.00,78.80707
767.50,79.00696
768.00,79.06036
768.50,78.93829
769.00,78.54919
769.50,78.54156
770.00,79.04510
770.50,78.79791
771.00,78.97034
771.50,79.27704
772.00,78.94897
772.50,79.14734
773.00,79.17175
773.50,79.14734
774.00,79.07562
774.50,78.68195
775.00,78.97034
775.50,78.86963
776.00,79.10919
776.50,78.88947
777.00,79.05731
777.50,79.15649
778.00,78.94592
778.50,79.33807
779.00,79.76837
779.50,79.13818
780.00,79.35028
780.50,78.83148
781.00,79.18854
781.50,79.27399
782.00,79.28772
782.50,79.15955
783.00,78.93524
783.50,79.42047
784.00,79.58221
784.50,79.29993
785.00,79.06494
785.50,79.38385
786.00,79.39911
786.50,79.79584
787.00,79.49677
787.50,79.56696
788.00,79.27399
788.50,79.39606
789.00,79.24042
789.50,79.70276
790.00,79.77448
790.50,79.31519
791.00,79.47845
791.50,79.39301
792.00,79.58374
792.50,79.60510
793.00,79.16107
793.50,79.72107
794.00,79.47083
794.50,79.88434
795.00,80.01099
795.50,79.79584
796.00,79.75922
796.50,79.94690
797.00,79.94690
797.50,79.77448
798.00,80.11780
798.50,80.12390
799.00,79.94995
799.50,79.94995
800.00,79.75922
800.50,80.05219
801.00,79.96216
801.50,80.31921
802.00,80.16663
802.50,80.12390
803.00,80.29175
803.50,80.41229
804.00,80.10559
804.50,80.24750
805.00,80.52216
805.50,80.25360
806.00,79.89655
806.50,80.06134
807.00,80.12085
807.50,80.66864
808.00,80.53894
808.50,80.44891
809.00,80.39093
809.50,80.47638
810.00,80.35278
810.50,80.62439
811.00,80.67932
811.50,80.52216
812.00,80.33905
812.50,80.47028
813.00,80.40466
813.50,80.56335
814.00,80.48706
814.50,81.00433
815.00,80.74951
815.50,80.90057
816.00,81.04858
816.50,81.01807
817.00,80.92346
817.50,80.79224
818.00,80.75867
818.50,80.57861
819.00,80.50537
819.50,81.08063
820.00,80.90210
820.50,80.74188
821.00,80.91125
821.50,80.93414
822.00,81.30035
822.50,80.81512
823.00,80.94940
823.50,81.25763
824.00,81.49109
824.50,81.25916
825.00,80.96008
825.50,81.80389
826.00,81.38428
826.50,81.81610
827.00,81.65436
827.50,81.31866
828.00,81.36292
828.50,81.68640
829.00,81.55518
829.50,81.91223
830.00,81.60095
830.50,81.52466
831.00,81.27289
831.50,81.70166
832.00,81.31256
832.50,81.54144
833.00,81.65741
833.50,81.34155
834.00,81.60553
834.50,81.71082
835.00,81.97174
835.50,82.02820
836.00,82.33795
836.50,81.84814
837.00,82.14569
837.50,82.26318
838.00,82.05109
838.50,82.05566
839.00,82.29370
839.50,82.41425
840.00,82.07245
840.50,82.51495
841.00,82.21588
841.50,82.21893
842.00,82.20367
842.50,82.57599
843.00,81.93970
843.50,82.33337
844.00,82.37610
844.50,82.38373
845.00,82.82318
845.50,82.56073
846.00,82.73773
846.50,82.48596
847.00,82.72095
847.50,82.53021
848.00,82.50275
848.50,82.58057
849.00,82.94525
849.50,82.89948
850.00,82.82776
850.50,83.01086
851.00,83.05664
851.50,83.08563
852.00,82.60345
852.50,82.65991
853.00,82.85370
853.50,83.16650
854.00,82.77893
854.50,82.40356
855.00,83.22144
855.50,83.17261
856.00,83.13446
856.50,82.70721
857.00,83.43048
857.50,83.43658
858.00,83.40149
858.50,82.97882
859.00,83.20770
859.50,83.23212
860.00,83.29163
860.50,83.07190
861.00,82.88879
861.50,82.81555
862.00,83.47321
862.50,83.25806
863.00,83.47931
863.50,84.19342
864.00,83.23975
864.50,83.72345
865.00,83.15735
865.50,83.86688
866.00,82.85217
866.50,83.49152
867.00,84.01794
867.50,83.71277
868.00,83.95233
868.50,83.33130
869.00,83.61206
869.50,83.63190
870.00,83.91113
870.50,84.14917
871.00,84.31702
871.50,84.63745
872.00,84.44214
872.50,83.38776
873.00,84.14154
873.50,84.42535
874.00,84.30481
874.50,84.28192
875.00,84.93195
875.50,85.05707
876.00,83.83636
876.50,83.54340
877.00,83.72192
877.50,83.21381
878.00,83.97675
878.50,83.72345
879.00,83.70361
879.50,84.34296
880.00,84.67102
880.50,86.26404
881.00,85.15930
881.50,83.84399
882.00,85.17609
882.50,83.56476
883.00,85.96344
883.50,84.49249
884.00,85.38666
884.50,85.47211
885.00,84.69849
885.50,84.24530
886.00,84.99451
886.50,83.85010
887.00,86.16333
887.50,84.98230
888.00,86.25488
888.50,85.55145
889.00,85.72235
889.50,84.60846
890.00,86.34186
890.50,85.70862
891.00,82.30133
891.50,85.27069
892.00,84.84192
892.50,86.87286
893.00,85.40649
893.50,86.94305
894.00,84.56879
894.50,84.55048
895.00,85.24780
895.50,85.23560
896.00,85.41870
896.50,85.09827
897.00,87.15820
897.50,88.85193
898.00,87.66022
898.50,84.03320
899.00,86.53717
899.50,82.94830
900.00,84.60541
900.50,87.61444
901.00,86.83014
901.50,83.61816
902.00,85.33325
902.50,84.62067
903.00,86.11450
903.50,87.52441
904.00,85.39429
904.50,87.53357
905.00,88.37433
905.50,85.25391
906.00,84.51080
906.50,84.16901
907.00,83.23212
907.50,89.97040
908.00,85.08606
908.50,84.49097
909.00,88.16986
909.50,89.45313
910.00,82.97424
910.50,86.71875
911.00,87.43286
911.50,87.37488
912.00,89.07928
912.50,84.50317
913.00,91.15143
913.50,88.83362
914.00,85.78033
914.50,88.70087
915.00,86.77521
915.50,87.52747
916.00,86.92474
916.50,86.72791
917.00,90.22217
917.50,82.74689
918.00,86.88202
918.50,94.90356
919.00,89.54163
919.50,90.49072
920.00,87.79297
920.50,87.35199
921.00,86.82556
921.50,88.21259
922.00,85.02197
922.50,85.80017
923.00,83.67615
923.50,87.18109
924.00,79.31519
924.50,87.47406
925.00,85.56061
925.50,91.35895
926.00,83.83636
926.50,87.29706
927.00,88.07068
927.50,95.52612
928.00,93.17322
928.50,86.66840
929.00,90.44495
929.50,84.01489
930.00,92.85431
930.50,86.84845
931.00,93.62030
931.50,89.08234
932.00,88.93585
932.50,92.01965
933.00,84.32770
933.50,85.18066
934.00,82.05872
934.50,89.53247
935.00,77.36359
935.50,84.87091
936.00,87.87842
936.50,83.82721
937.00,86.32202
937.50,80.63049
938.00,85.66742
938.50,88.63983
939.00,93.66455
939.50,92.59796
940.00,89.63470
940.50,97.64709
941.00,94.46716
941.50,83.91571
942.00,81.57501
942.50,96.31958
943.00,90.53497
943.50,96.60492
944.00,89.28375
944.50,87.15515
945.00,79.22363
945.50,84.99603
946.00,94.19250
946.50,93.62946
947.00,97.30988
947.50,80.61371
948.00,88.08746
948.50,85.01740
949.00,88.15460
949.50,83.15430
950.00,82.47833
