"Storage 040622 PM - RawData - C:\Documents and Settings\photometer\Desktop\File 090429 040622 PM.spc"
"Wavelength nm.","T%"
200.00,0.002
200.50,0.000
201.00,0.000
201.50,0.000
202.00,0.000
202.50,0.000
203.00,0.002
203.50,0.000
204.00,0.000
204.50,0.000
205.00,0.000
205.50,0.000
206.00,0.000
206.50,0.002
207.00,0.002
207.50,0.000
208.00,0.000
208.50,0.000
209.00,0.000
209.50,0.000
210.00,0.000
210.50,0.000
211.00,0.000
211.50,0.000
212.00,0.000
212.50,0.000
213.00,0.000
213.50,0.000
214.00,0.000
214.50,0.000
215.00,0.000
215.50,0.000
216.00,0.002
216.50,0.000
217.00,0.000
217.50,0.000
218.00,0.000
218.50,0.000
219.00,0.000
219.50,0.002
220.00,0.002
220.50,0.002
221.00,0.000
221.50,0.000
222.00,0.000
222.50,0.000
223.00,0.000
223.50,0.000
224.00,0.002
224.50,0.000
225.00,0.000
225.50,0.000
226.00,0.000
226.50,0.002
227.00,0.002
227.50,0.000
228.00,0.000
228.50,0.000
229.00,0.000
229.50,0.000
230.00,0.002
230.50,0.002
231.00,0.002
231.50,0.002
232.00,0.002
232.50,0.002
233.00,0.002
233.50,0.002
234.00,0.002
234.50,0.002
235.00,0.002
235.50,0.002
236.00,0.002
236.50,0.002
237.00,0.003
237.50,0.003
238.00,0.003
238.50,0.003
239.00,0.003
239.50,0.003
240.00,0.003
240.50,0.005
241.00,0.006
241.50,0.008
242.00,0.012
242.50,0.017
243.00,0.021
243.50,0.029
244.00,0.040
244.50,0.055
245.00,0.075
245.50,0.102
246.00,0.139
246.50,0.183
247.00,0.241
247.50,0.311
248.00,0.400
248.50,0.513
249.00,0.644
249.50,0.798
250.00,0.974
250.50,1.180
251.00,1.422
251.50,1.714
252.00,2.045
252.50,2.406
253.00,2.814
253.50,3.267
254.00,3.795
254.50,4.381
255.00,5.013
255.50,5.702
256.00,6.465
256.50,7.298
257.00,8.183
257.50,9.178
258.00,10.185
258.50,11.214
259.00,12.305
259.50,13.425
260.00,14.565
260.50,15.726
261.00,16.899
261.50,18.091
262.00,19.283
262.50,20.451
263.00,21.646
263.50,22.845
264.00,23.994
264.50,25.095
265.00,26.186
265.50,27.205
266.00,28.235
266.50,29.269
267.00,30.234
267.50,31.139
268.00,32.033
268.50,32.944
269.00,33.826
269.50,34.676
270.00,35.518
270.50,36.380
271.00,37.292
271.50,38.206
272.00,39.070
272.50,39.926
273.00,40.804
273.50,41.779
274.00,42.766
274.50,43.678
275.00,44.603
275.50,45.580
276.00,46.591
276.50,47.639
277.00,48.648
277.50,49.635
278.00,50.623
278.50,51.643
279.00,52.731
279.50,53.726
280.00,54.640
280.50,55.537
281.00,56.464
281.50,57.341
282.00,58.180
282.50,58.937
283.00,59.619
283.50,60.321
284.00,60.927
284.50,61.409
285.00,61.858
285.50,62.303
286.00,62.645
286.50,62.939
287.00,63.275
287.50,63.568
288.00,63.754
288.50,63.948
289.00,64.180
289.50,64.394
290.00,64.580
290.50,64.763
291.00,64.963
291.50,65.201
292.00,65.424
292.50,65.614
293.00,65.823
293.50,66.075
294.00,66.379
294.50,66.708
295.00,67.039
295.50,67.441
296.00,67.908
296.50,68.272
297.00,68.607
297.50,69.080
298.00,69.553
298.50,69.994
299.00,70.450
299.50,70.906
300.00,71.437
300.50,71.997
301.00,72.534
301.50,73.151
302.00,73.700
302.50,74.184
303.00,74.770
303.50,75.293
304.00,75.772
304.50,76.294
305.00,76.758
305.50,77.176
306.00,77.740
306.50,78.262
307.00,78.638
307.50,79.005
308.00,79.337
308.50,79.700
309.00,80.006
309.50,80.347
310.00,80.621
310.50,80.705
311.00,80.891
311.50,81.059
312.00,81.105
312.50,81.200
313.00,81.245
313.50,81.236
314.00,81.253
314.50,81.250
315.00,81.224
315.50,81.218
316.00,81.181
316.50,81.097
317.00,81.090
317.50,81.017
318.00,80.864
318.50,80.801
319.00,80.739
319.50,80.661
320.00,80.534
320.50,80.423
321.00,80.516
321.50,80.553
322.00,80.524
322.50,80.568
323.00,80.615
323.50,80.658
324.00,80.682
324.50,80.710
325.00,80.800
325.50,80.954
326.00,81.142
326.50,81.416
327.00,81.654
327.50,81.847
328.00,82.043
328.50,82.251
329.00,82.530
329.50,82.750
330.00,83.037
330.50,83.350
331.00,83.615
331.50,83.971
332.00,84.320
332.50,84.630
333.00,84.917
333.50,85.216
334.00,85.577
334.50,85.902
335.00,86.198
335.50,86.427
336.00,86.700
336.50,87.057
337.00,87.291
337.50,87.573
338.00,87.859
338.50,88.132
339.00,88.306
339.50,88.461
340.00,88.687
340.50,88.817
341.00,88.963
341.50,89.090
342.00,89.156
342.50,89.236
343.00,89.328
343.50,89.384
344.00,89.388
344.50,89.500
345.00,89.633
345.50,89.636
346.00,89.595
346.50,89.502
347.00,89.360
347.50,89.282
348.00,89.311
348.50,89.230
349.00,89.084
349.50,88.980
350.00,88.898
350.50,88.789
351.00,88.628
351.50,88.466
352.00,88.313
352.50,88.165
353.00,88.019
353.50,87.900
354.00,87.746
354.50,87.556
355.00,87.369
355.50,87.186
356.00,87.045
356.50,86.897
357.00,86.743
357.50,86.578
358.00,86.469
358.50,86.378
359.00,86.253
359.50,86.105
360.00,86.026
360.50,86.037
361.00,85.968
361.50,85.904
362.00,85.919
362.50,85.899
363.00,85.886
363.50,85.876
364.00,85.802
364.50,85.812
365.00,85.899
365.50,85.927
366.00,85.977
366.50,86.087
367.00,86.183
367.50,86.302
368.00,86.412
368.50,86.490
369.00,86.617
369.50,86.755
370.00,86.865
370.50,87.032
371.00,87.202
371.50,87.410
372.00,87.592
372.50,87.708
373.00,87.831
373.50,87.997
374.00,88.196
374.50,88.423
375.00,88.617
375.50,88.785
376.00,88.982
376.50,89.136
377.00,89.297
377.50,89.487
378.00,89.690
378.50,89.870
379.00,90.045
379.50,90.195
380.00,90.335
380.50,90.462
381.00,90.602
381.50,90.765
382.00,90.886
382.50,91.003
383.00,91.110
383.50,91.177
384.00,91.249
384.50,91.382
385.00,91.472
385.50,91.539
386.00,91.612
386.50,91.623
387.00,91.667
387.50,91.747
388.00,91.743
388.50,91.750
389.00,91.809
389.50,91.786
390.00,91.689
390.50,91.624
391.00,91.637
391.50,91.640
392.00,91.550
392.50,91.417
393.00,91.336
393.50,91.263
394.00,91.174
394.50,91.058
395.00,90.961
395.50,90.880
396.00,90.733
396.50,90.599
397.00,90.503
397.50,90.373
398.00,90.250
398.50,90.146
399.00,89.989
399.50,89.862
400.00,89.738
400.50,89.557
401.00,89.398
401.50,89.249
402.00,89.120
402.50,89.009
403.00,88.846
403.50,88.684
404.00,88.586
404.50,88.474
405.00,88.382
405.50,88.235
406.00,88.043
406.50,87.906
407.00,87.802
407.50,87.698
408.00,87.631
408.50,87.581
409.00,87.506
409.50,87.428
410.00,87.329
410.50,87.251
411.00,87.160
411.50,87.045
412.00,87.024
412.50,87.033
413.00,86.978
413.50,86.938
414.00,86.896
414.50,86.862
415.00,86.868
415.50,86.951
416.00,87.039
416.50,87.021
417.00,86.957
417.50,86.964
418.00,87.029
418.50,87.032
419.00,86.984
419.50,87.050
420.00,87.177
420.50,87.212
421.00,87.221
421.50,87.314
422.00,87.386
422.50,87.427
423.00,87.558
423.50,87.668
424.00,87.744
424.50,87.817
425.00,87.909
425.50,88.072
426.00,88.202
426.50,88.263
427.00,88.318
427.50,88.411
428.00,88.525
428.50,88.681
429.00,88.831
429.50,88.943
430.00,89.081
430.50,89.203
431.00,89.359
431.50,89.485
432.00,89.595
432.50,89.731
433.00,89.833
433.50,89.935
434.00,90.071
434.50,90.219
435.00,90.341
435.50,90.477
436.00,90.605
436.50,90.678
437.00,90.756
437.50,90.878
438.00,91.010
438.50,91.116
439.00,91.199
439.50,91.304
440.00,91.415
440.50,91.508
441.00,91.579
441.50,91.676
442.00,91.753
442.50,91.785
443.00,91.861
443.50,91.937
444.00,91.968
444.50,91.988
445.00,92.020
445.50,92.076
446.00,92.107
446.50,92.101
447.00,92.104
447.50,92.110
448.00,92.123
448.50,92.151
449.00,92.116
449.50,92.120
450.00,92.146
450.50,92.113
451.00,92.087
451.50,92.090
452.00,92.079
452.50,92.029
453.00,91.986
453.50,91.930
454.00,91.853
454.50,91.806
455.00,91.765
455.50,91.727
456.00,91.670
456.50,91.585
457.00,91.531
457.50,91.489
458.00,91.409
458.50,91.327
459.00,91.249
459.50,91.165
460.00,91.069
460.50,90.964
461.00,90.900
461.50,90.811
462.00,90.695
462.50,90.627
463.00,90.543
463.50,90.424
464.00,90.324
464.50,90.230
465.00,90.123
465.50,90.022
466.00,89.902
466.50,89.751
467.00,89.639
467.50,89.548
468.00,89.441
468.50,89.340
469.00,89.238
469.50,89.136
470.00,89.035
470.50,88.937
471.00,88.840
471.50,88.737
472.00,88.647
472.50,88.559
473.00,88.455
473.50,88.379
474.00,88.326
474.50,88.258
475.00,88.185
475.50,88.120
476.00,88.052
476.50,87.971
477.00,87.915
477.50,87.880
478.00,87.857
478.50,87.804
479.00,87.726
479.50,87.642
480.00,87.582
480.50,87.564
481.00,87.524
481.50,87.476
482.00,87.460
482.50,87.428
483.00,87.413
483.50,87.396
484.00,87.361
484.50,87.358
485.00,87.344
485.50,87.378
486.00,87.364
486.50,87.340
487.00,87.344
487.50,87.312
488.00,87.292
488.50,87.283
489.00,87.326
489.50,87.369
490.00,87.383
490.50,87.390
491.00,87.421
491.50,87.444
492.00,87.424
492.50,87.450
493.00,87.511
493.50,87.540
494.00,87.587
494.50,87.610
495.00,87.639
495.50,87.723
496.00,87.781
496.50,87.848
497.00,87.915
497.50,87.958
498.00,88.020
498.50,88.078
499.00,88.135
499.50,88.184
500.00,88.225
500.50,88.307
501.00,88.411
501.50,88.470
502.00,88.545
502.50,88.657
503.00,88.728
503.50,88.806
504.00,88.904
504.50,88.982
505.00,89.059
505.50,89.163
506.00,89.246
506.50,89.331
507.00,89.415
507.50,89.507
508.00,89.592
508.50,89.651
509.00,89.766
509.50,89.850
510.00,89.911
510.50,90.033
511.00,90.144
511.50,90.221
512.00,90.277
512.50,90.347
513.00,90.471
513.50,90.565
514.00,90.631
514.50,90.732
515.00,90.810
515.50,90.871
516.00,90.932
516.50,90.997
517.00,91.060
517.50,91.124
518.00,91.196
518.50,91.261
519.00,91.306
519.50,91.371
520.00,91.496
520.50,91.570
521.00,91.602
521.50,91.676
522.00,91.734
522.50,91.760
523.00,91.818
523.50,91.870
524.00,91.902
524.50,91.946
525.00,91.982
525.50,92.018
526.00,92.073
526.50,92.134
527.00,92.189
527.50,92.212
528.00,92.218
528.50,92.247
529.00,92.296
529.50,92.320
530.00,92.339
530.50,92.358
531.00,92.363
531.50,92.387
532.00,92.398
532.50,92.409
533.00,92.412
533.50,92.407
534.00,92.432
534.50,92.462
535.00,92.455
535.50,92.418
536.00,92.392
536.50,92.374
537.00,92.384
537.50,92.392
538.00,92.363
538.50,92.336
539.00,92.320
539.50,92.293
540.00,92.256
540.50,92.210
541.00,92.188
541.50,92.159
542.00,92.122
542.50,92.079
543.00,92.052
543.50,92.044
544.00,92.009
544.50,91.949
545.00,91.916
545.50,91.870
546.00,91.791
546.50,91.745
547.00,91.695
547.50,91.667
548.00,91.588
548.50,91.510
549.00,91.476
549.50,91.402
550.00,91.315
550.50,91.255
551.00,91.223
551.50,91.205
552.00,91.168
552.50,91.106
553.00,91.042
553.50,90.976
554.00,90.889
554.50,90.820
555.00,90.765
555.50,90.715
556.00,90.662
556.50,90.570
557.00,90.518
557.50,90.477
558.00,90.392
558.50,90.308
559.00,90.262
559.50,90.211
560.00,90.117
560.50,90.057
561.00,89.999
561.50,89.922
562.00,89.864
562.50,89.799
563.00,89.742
563.50,89.667
564.00,89.612
564.50,89.529
565.00,89.458
565.50,89.407
566.00,89.330
566.50,89.284
567.00,89.267
567.50,89.217
568.00,89.137
568.50,89.049
569.00,88.991
569.50,88.940
570.00,88.863
570.50,88.800
571.00,88.753
571.50,88.696
572.00,88.626
572.50,88.593
573.00,88.562
573.50,88.496
574.00,88.441
574.50,88.376
575.00,88.301
575.50,88.264
576.00,88.229
576.50,88.197
577.00,88.164
577.50,88.165
578.00,88.155
578.50,88.089
579.00,88.023
579.50,87.968
580.00,87.938
580.50,87.904
581.00,87.863
581.50,87.819
582.00,87.823
582.50,87.813
583.00,87.758
583.50,87.752
584.00,87.756
584.50,87.750
585.00,87.709
585.50,87.653
586.00,87.639
586.50,87.640
587.00,87.651
587.50,87.675
588.00,87.639
588.50,87.607
589.00,87.627
589.50,87.633
590.00,87.628
590.50,87.653
591.00,87.683
591.50,87.669
592.00,87.651
592.50,87.654
593.00,87.669
593.50,87.672
594.00,87.671
594.50,87.701
595.00,87.698
595.50,87.683
596.00,87.698
596.50,87.740
597.00,87.766
597.50,87.756
598.00,87.752
598.50,87.750
599.00,87.775
599.50,87.811
600.00,87.831
600.50,87.837
601.00,87.877
601.50,87.927
602.00,87.958
602.50,87.982
603.00,88.005
603.50,88.036
604.00,88.065
604.50,88.103
605.00,88.142
605.50,88.188
606.00,88.232
606.50,88.280
607.00,88.324
607.50,88.345
608.00,88.405
608.50,88.454
609.00,88.480
609.50,88.531
610.00,88.551
610.50,88.589
611.00,88.692
611.50,88.745
612.00,88.760
612.50,88.812
613.00,88.870
613.50,88.916
614.00,88.927
614.50,88.974
615.00,89.043
615.50,89.059
616.00,89.102
616.50,89.142
617.00,89.200
617.50,89.278
618.00,89.326
618.50,89.395
619.00,89.453
619.50,89.490
620.00,89.523
620.50,89.577
621.00,89.627
621.50,89.694
622.00,89.761
622.50,89.798
623.00,89.833
623.50,89.894
624.00,89.919
624.50,89.920
625.00,89.981
625.50,90.059
626.00,90.134
626.50,90.190
627.00,90.251
627.50,90.308
628.00,90.366
628.50,90.451
629.00,90.529
629.50,90.569
630.00,90.602
630.50,90.620
631.00,90.669
631.50,90.739
632.00,90.767
632.50,90.845
633.00,90.912
633.50,90.932
634.00,90.984
634.50,91.061
635.00,91.110
635.50,91.145
636.00,91.216
636.50,91.286
637.00,91.338
637.50,91.388
638.00,91.434
638.50,91.441
639.00,91.469
639.50,91.521
640.00,91.547
640.50,91.597
641.00,91.658
641.50,91.751
642.00,91.805
642.50,91.797
643.00,91.818
643.50,91.856
644.00,91.908
644.50,91.934
645.00,91.983
645.50,92.017
646.00,92.050
646.50,92.102
647.00,92.134
647.50,92.178
648.00,92.203
648.50,92.230
649.00,92.259
649.50,92.256
650.00,92.262
650.50,92.305
651.00,92.348
651.50,92.386
652.00,92.427
652.50,92.450
653.00,92.442
653.50,92.436
654.00,92.464
654.50,92.484
655.00,92.499
655.50,92.551
656.00,92.561
656.50,92.537
657.00,92.540
657.50,92.537
658.00,92.542
658.50,92.558
659.00,92.601
659.50,92.632
660.00,92.635
660.50,92.628
661.00,92.610
661.50,92.641
662.00,92.671
662.50,92.677
663.00,92.680
663.50,92.653
664.00,92.635
664.50,92.625
665.00,92.604
665.50,92.603
666.00,92.587
666.50,92.580
667.00,92.589
667.50,92.583
668.00,92.569
668.50,92.580
669.00,92.599
669.50,92.584
670.00,92.554
670.50,92.537
671.00,92.545
671.50,92.528
672.00,92.517
672.50,92.514
673.00,92.484
673.50,92.448
674.00,92.415
674.50,92.421
675.00,92.422
675.50,92.409
676.00,92.410
676.50,92.395
677.00,92.328
677.50,92.273
678.00,92.244
678.50,92.233
679.00,92.210
679.50,92.191
680.00,92.204
680.50,92.166
681.00,92.131
681.50,92.093
682.00,92.050
682.50,92.006
683.00,91.968
683.50,91.956
684.00,91.928
684.50,91.895
685.00,91.875
685.50,91.846
686.00,91.801
686.50,91.785
687.00,91.757
687.50,91.687
688.00,91.667
688.50,91.647
689.00,91.579
689.50,91.537
690.00,91.495
690.50,91.451
691.00,91.425
691.50,91.412
692.00,91.359
692.50,91.292
693.00,91.266
693.50,91.245
694.00,91.205
694.50,91.165
695.00,91.144
695.50,91.106
696.00,91.078
696.50,91.052
697.00,90.996
697.50,90.950
698.00,90.903
698.50,90.840
699.00,90.761
699.50,90.736
700.00,90.730
700.50,90.700
701.00,90.660
701.50,90.616
702.00,90.575
702.50,90.511
703.00,90.474
703.50,90.424
704.00,90.398
704.50,90.370
705.00,90.297
705.50,90.230
706.00,90.161
706.50,90.108
707.00,90.077
707.50,90.056
708.00,90.039
708.50,90.007
709.00,89.984
709.50,89.949
710.00,89.882
710.50,89.851
711.00,89.812
711.50,89.771
712.00,89.743
712.50,89.706
713.00,89.661
713.50,89.616
714.00,89.563
714.50,89.502
715.00,89.473
715.50,89.426
716.00,89.386
716.50,89.365
717.00,89.325
717.50,89.294
718.00,89.258
718.50,89.188
719.00,89.177
719.50,89.185
720.00,89.140
720.50,89.099
721.00,89.079
721.50,89.063
722.00,89.037
722.50,89.005
723.00,88.959
723.50,88.939
724.00,88.905
724.50,88.867
725.00,88.832
725.50,88.788
726.00,88.763
726.50,88.748
727.00,88.728
727.50,88.705
728.00,88.669
728.50,88.615
729.00,88.586
729.50,88.562
730.00,88.550
730.50,88.535
731.00,88.484
731.50,88.441
732.00,88.408
732.50,88.373
733.00,88.356
733.50,88.339
734.00,88.351
734.50,88.379
735.00,88.361
735.50,88.310
736.00,88.271
736.50,88.234
737.00,88.210
737.50,88.181
738.00,88.130
738.50,88.136
739.00,88.179
739.50,88.194
740.00,88.138
740.50,88.084
741.00,88.068
741.50,88.049
742.00,88.052
742.50,88.025
743.00,88.002
743.50,88.023
744.00,87.981
744.50,87.930
745.00,87.941
745.50,87.955
746.00,87.973
746.50,87.926
747.00,87.871
747.50,87.892
748.00,87.898
748.50,87.892
749.00,87.900
749.50,87.877
750.00,87.872
750.50,87.856
751.00,87.831
751.50,87.820
752.00,87.807
752.50,87.820
753.00,87.798
753.50,87.793
754.00,87.820
754.50,87.820
755.00,87.831
755.50,87.880
756.00,87.920
756.50,87.877
757.00,87.823
757.50,87.810
758.00,87.813
758.50,87.802
759.00,87.827
759.50,87.865
760.00,87.880
760.50,87.869
761.00,87.881
761.50,87.909
762.00,87.897
762.50,87.885
763.00,87.869
763.50,87.898
764.00,87.952
764.50,87.962
765.00,87.943
765.50,87.920
766.00,87.924
766.50,87.889
767.00,87.920
767.50,87.991
768.00,88.016
768.50,88.063
769.00,88.068
769.50,88.086
770.00,88.109
770.50,88.110
771.00,88.095
771.50,88.078
772.00,88.113
772.50,88.155
773.00,88.162
773.50,88.182
774.00,88.217
774.50,88.217
775.00,88.245
775.50,88.249
776.00,88.237
776.50,88.272
777.00,88.268
777.50,88.297
778.00,88.303
778.50,88.316
779.00,88.376
779.50,88.431
780.00,88.452
780.50,88.409
781.00,88.405
781.50,88.417
782.00,88.435
782.50,88.457
783.00,88.467
783.50,88.466
784.00,88.535
784.50,88.602
785.00,88.603
785.50,88.614
786.00,88.637
786.50,88.698
787.00,88.736
787.50,88.766
788.00,88.791
788.50,88.821
789.00,88.860
789.50,88.852
790.00,88.867
790.50,88.899
791.00,88.930
791.50,88.951
792.00,88.956
792.50,88.989
793.00,89.044
793.50,89.108
794.00,89.174
794.50,89.185
795.00,89.192
795.50,89.230
796.00,89.253
796.50,89.267
797.00,89.275
797.50,89.322
798.00,89.351
798.50,89.386
799.00,89.426
799.50,89.424
800.00,89.482
800.50,89.546
801.00,89.575
801.50,89.600
802.00,89.626
802.50,89.653
803.00,89.699
803.50,89.755
804.00,89.749
804.50,89.746
805.00,89.789
805.50,89.789
806.00,89.818
806.50,89.929
807.00,89.949
807.50,89.941
808.00,89.951
808.50,89.990
809.00,90.051
809.50,90.100
810.00,90.167
810.50,90.172
811.00,90.175
811.50,90.230
812.00,90.228
812.50,90.227
813.00,90.271
813.50,90.321
814.00,90.411
814.50,90.450
815.00,90.460
815.50,90.475
816.00,90.466
816.50,90.511
817.00,90.570
817.50,90.591
818.00,90.633
818.50,90.656
819.00,90.633
819.50,90.691
820.00,90.739
820.50,90.762
821.00,90.771
821.50,90.778
822.00,90.866
822.50,90.901
823.00,90.891
823.50,90.921
824.00,90.942
824.50,90.993
825.00,91.078
825.50,91.045
826.00,91.040
826.50,91.080
827.00,91.083
827.50,91.119
828.00,91.142
828.50,91.176
829.00,91.240
829.50,91.280
830.00,91.290
830.50,91.359
831.00,91.418
831.50,91.475
832.00,91.534
832.50,91.512
833.00,91.525
833.50,91.545
834.00,91.553
834.50,91.582
835.00,91.588
835.50,91.640
836.00,91.685
836.50,91.638
837.00,91.614
837.50,91.672
838.00,91.733
838.50,91.794
839.00,91.830
839.50,91.858
840.00,91.896
840.50,91.910
841.00,91.928
841.50,91.920
842.00,91.946
842.50,91.937
843.00,91.968
843.50,92.038
844.00,91.985
844.50,91.983
845.00,92.082
845.50,92.139
846.00,92.198
846.50,92.215
847.00,92.171
847.50,92.203
848.00,92.264
848.50,92.285
849.00,92.238
849.50,92.236
850.00,92.294
850.50,92.276
851.00,92.227
851.50,92.322
852.00,92.435
852.50,92.386
853.00,92.424
853.50,92.517
854.00,92.526
854.50,92.496
855.00,92.496
855.50,92.549
856.00,92.570
856.50,92.581
857.00,92.590
857.50,92.635
858.00,92.659
858.50,92.645
859.00,92.628
859.50,92.604
860.00,92.596
860.50,92.625
861.00,92.691
861.50,92.662
862.00,92.618
862.50,92.696
863.00,92.752
863.50,92.711
864.00,92.654
864.50,92.635
865.00,92.706
865.50,92.824
866.00,92.886
866.50,92.879
867.00,92.827
867.50,92.796
868.00,92.764
868.50,92.834
869.00,92.982
869.50,92.993
870.00,92.923
870.50,92.906
871.00,92.900
871.50,92.848
872.00,92.830
872.50,92.793
873.00,92.857
873.50,92.978
874.00,93.073
874.50,93.100
875.00,93.059
875.50,93.054
876.00,92.981
876.50,92.888
877.00,92.778
877.50,92.827
878.00,92.931
878.50,92.984
879.00,93.010
879.50,92.989
880.00,93.028
880.50,93.007
881.00,92.998
881.50,93.103
882.00,93.227
882.50,93.207
883.00,93.173
883.50,93.234
884.00,93.114
884.50,92.903
885.00,92.851
885.50,92.719
886.00,92.686
886.50,92.809
887.00,92.677
887.50,92.703
888.00,92.715
888.50,92.470
889.00,92.703
889.50,92.862
890.00,92.712
890.50,92.763
891.00,92.432
891.50,92.162
892.00,92.470
892.50,92.767
893.00,92.804
893.50,92.778
894.00,92.934
894.50,92.952
895.00,92.908
895.50,93.108
896.00,93.042
896.50,92.867
897.00,92.908
897.50,93.054
898.00,93.105
898.50,92.917
899.00,92.833
899.50,92.781
900.00,92.702
900.50,92.793
901.00,92.929
901.50,92.722
902.00,92.415
902.50,92.525
903.00,92.349
903.50,92.441
904.00,92.969
904.50,92.952
905.00,92.813
905.50,92.781
906.00,92.902
906.50,92.928
907.00,92.691
907.50,92.473
908.00,92.572
908.50,92.667
909.00,92.314
909.50,92.136
910.00,92.149
910.50,91.785
911.00,91.986
911.50,92.564
912.00,93.230
912.50,93.681
913.00,93.211
913.50,92.902
914.00,92.787
914.50,92.574
915.00,92.751
915.50,92.712
916.00,92.821
916.50,92.979
917.00,92.776
917.50,92.181
918.00,91.600
918.50,92.120
919.00,92.299
919.50,91.997
920.00,92.130
920.50,92.236
921.00,91.490
921.50,91.740
922.00,92.244
922.50,91.840
923.00,91.960
923.50,92.120
924.00,92.406
924.50,92.155
925.00,91.968
925.50,92.305
926.00,92.410
926.50,92.909
927.00,92.612
927.50,91.681
928.00,90.874
928.50,89.977
929.00,90.060
929.50,90.634
930.00,90.678
930.50,91.544
931.00,91.785
931.50,91.551
932.00,91.849
932.50,91.096
933.00,90.924
933.50,91.624
934.00,92.076
934.50,91.953
935.00,92.334
935.50,92.047
936.00,90.956
936.50,90.472
937.00,90.080
937.50,89.819
938.00,90.523
938.50,91.479
939.00,90.733
939.50,90.550
940.00,90.712
940.50,90.639
941.00,90.688
941.50,90.593
942.00,90.956
942.50,91.425
943.00,91.016
943.50,90.379
944.00,90.166
944.50,90.042
945.00,89.871
945.50,90.508
946.00,90.932
946.50,90.211
947.00,89.902
947.50,89.561
948.00,90.488
948.50,90.491
949.00,89.784
949.50,90.675
950.00,89.574
